Dividing Wavelength (nm)	Counts (n)	Blue Motor Position (mm): 49.600000	Red Motor Position (mm): 0.000000	
326.493990	0.999402
326.888308	0.999402
327.282561	0.999402
327.676750	0.999906
328.070874	1.000446
328.464933	1.000683
328.858929	1.000754
329.252859	0.999844
329.646726	0.999775
330.040528	0.999660
330.434265	1.000687
330.827938	1.000218
331.221547	0.999567
331.615091	0.999793
332.008571	1.001282
332.401986	0.997904
332.795338	0.999242
333.188625	1.000184
333.581847	0.999648
333.975006	0.999363
334.368100	1.000772
334.761129	0.998819
335.154095	1.000591
335.546996	0.999955
335.939833	0.999195
336.332606	0.998960
336.725315	0.998671
337.117960	1.000429
337.510540	0.998325
337.903056	0.999701
338.295508	1.001144
338.687896	0.999885
339.080220	1.000212
339.472480	0.999864
339.864676	1.000450
340.256807	0.998059
340.648875	0.998776
341.040879	0.999753
341.432818	1.001408
341.824694	0.999466
342.216506	1.001607
342.608253	1.000200
342.999937	1.000253
343.391557	0.999790
343.783113	1.002208
344.174605	0.999414
344.566033	0.998855
344.957397	1.001138
345.348697	1.000019
345.739934	1.000072
346.131106	1.000241
346.522215	0.999500
346.913260	0.999396
347.304241	0.998723
347.695159	0.999895
348.086012	0.999805
348.476802	1.000272
348.867528	0.998221
349.258191	0.999838
349.648789	0.999629
350.039324	0.999883
350.429796	0.999619
350.820203	0.999787
351.210548	0.999935
351.600828	0.999179
351.991045	0.999426
352.381198	1.000330
352.771288	0.999891
353.161314	1.000639
353.551276	0.999049
353.941175	0.998000
354.331010	1.000872
354.720782	0.998573
355.110490	0.999291
355.500135	0.999975
355.889717	0.999133
356.279235	0.998535
356.668689	0.999573
357.058080	0.999693
357.447408	0.999813
357.836672	1.000039
358.225873	1.000272
358.615010	0.999009
359.004084	0.998537
359.393095	1.000460
359.782043	0.999809
360.170927	1.000106
360.559748	0.999929
360.948505	0.999715
361.337199	0.999371
361.725830	1.000127
362.114398	0.999638
362.502903	0.999846
362.891344	0.998556
363.279722	0.998416
363.668037	1.001320
364.056289	0.999375
364.444478	1.001547
364.832603	1.000231
365.220665	0.999771
365.608665	0.999711
365.996601	0.999581
366.384474	0.997961
366.772284	1.000186
367.160031	0.999559
367.547715	0.999276
367.935336	0.998733
368.322893	0.998925
368.710388	0.998888
369.097820	0.999158
369.485189	0.998018
369.872495	0.998692
370.259738	0.998307
370.646918	0.998352
371.034035	0.997326
371.421090	0.998089
371.808081	0.996870
372.195010	0.996984
372.581875	0.997557
372.968678	0.997212
373.355418	0.998184
373.742096	0.995061
374.128710	0.996712
374.515262	0.998129
374.901751	0.995496
375.288177	0.996188
375.674540	0.997182
376.060841	0.996803
376.447079	0.996509
376.833254	0.996098
377.219367	0.998261
377.605417	0.997405
377.991404	0.997234
378.377329	0.998305
378.763191	0.997074
379.148991	0.997205
379.534727	0.996663
379.920402	0.997020
380.306013	0.996840
380.691563	0.998885
381.077049	0.997577
381.462474	0.998778
381.847835	0.997445
382.233134	0.998271
382.618371	0.999065
383.003545	0.999199
383.388657	0.999448
383.773706	0.999044
384.158693	0.999655
384.543618	0.999332
384.928480	0.998974
385.313280	0.999705
385.698017	0.998574
386.082692	0.999050
386.467305	0.999262
386.851856	1.000907
387.236344	1.000278
387.620770	1.000730
388.005133	0.999892
388.389435	0.999796
388.773674	0.999497
389.157851	0.999384
389.541965	1.000615
389.926018	1.000266
390.310008	0.999740
390.693936	1.001139
391.077802	1.000789
391.461606	0.999059
391.845348	1.000037
392.229027	0.998944
392.612645	1.000602
392.996200	1.000801
393.379694	0.999810
393.763125	0.999807
394.146494	1.000439
394.529801	1.000309
394.913047	0.999333
395.296230	1.000698
395.679351	1.000312
396.062410	1.000740
396.445408	1.001013
396.828343	1.001035
397.211217	1.000567
397.594028	0.998994
397.976778	1.000846
398.359466	1.000290
398.742092	1.001482
399.124656	0.999400
399.507158	0.998955
399.889598	1.000344
400.271977	0.999725
400.654294	1.000522
401.036549	1.000711
401.418742	0.999863
401.800874	1.000844
402.182944	0.999903
402.564952	0.999997
402.946898	1.000039
403.328783	1.000730
403.710606	0.999963
404.092367	1.000762
404.474067	1.001125
404.855705	1.001083
405.237282	1.000158
405.618797	0.999889
406.000250	1.000169
406.381642	0.999305
406.762972	0.999966
407.144240	1.000126
407.525447	0.998684
407.906593	1.000340
408.287677	1.000200
408.668700	1.001013
409.049661	1.001129
409.430560	0.999591
409.811399	0.999934
410.192176	0.999165
410.572891	1.000538
410.953545	0.999910
411.334138	1.000338
411.714669	1.000165
412.095139	1.000317
412.475547	1.000455
412.855894	1.000486
413.236180	1.000102
413.616405	1.000073
413.996568	1.000082
414.376670	1.000210
414.756711	0.999913
415.136691	1.000245
415.516609	0.998792
415.896466	1.000219
416.276262	1.000122
416.655997	1.000383
417.035670	1.000438
417.415283	0.999907
417.794834	1.000221
418.174324	1.001424
418.553753	0.999876
418.933121	1.000745
419.312428	1.000972
419.691674	1.001307
420.070859	0.999943
420.449983	1.000801
420.829045	0.999864
421.208047	1.000755
421.586988	1.000048
421.965867	0.999189
422.344686	1.000119
422.723444	1.000163
423.102141	1.000648
423.480777	0.999614
423.859352	1.000132
424.237866	1.000220
424.616319	1.000528
424.994712	1.001001
425.373044	1.001058
425.751314	1.000337
426.129524	1.001226
426.507673	0.999905
426.885762	0.999876
427.263789	0.999448
427.641756	0.999830
428.019662	1.000027
428.397508	1.000545
428.775292	0.999743
429.153016	0.999419
429.530679	0.999975
429.908282	1.000808
430.285824	1.000328
430.663305	1.000296
431.040726	1.000716
431.418086	1.000120
431.795385	1.000534
432.172624	1.001263
432.549802	1.000205
432.926920	1.000506
433.303977	0.999608
433.680974	1.001039
434.057910	1.001226
434.434786	0.999121
434.811601	1.000219
435.188355	1.000519
435.565050	1.000688
435.941683	1.000606
436.318257	0.999942
436.694770	0.999826
437.071222	1.000279
437.447614	1.000161
437.823946	1.000073
438.200218	0.999715
438.576429	0.999845
438.952580	1.000485
439.328670	0.999621
439.704700	0.999503
440.080670	1.000243
440.456580	1.001114
440.832429	1.000081
441.208218	1.000577
441.583947	1.000465
441.959616	0.999486
442.335224	1.001516
442.710773	1.001088
443.086261	1.000704
443.461689	0.999977
443.837057	0.999788
444.212365	1.001065
444.587612	1.001075
444.962800	1.000685
445.337927	1.000970
445.712995	1.000439
446.088002	0.999627
446.462949	1.000133
446.837837	1.001885
447.212664	1.000337
447.587431	1.000704
447.962139	0.999685
448.336786	0.999306
448.711374	0.999885
449.085901	1.001108
449.460369	1.001051
449.834776	1.000600
450.209124	1.000046
450.583412	1.000481
450.957640	0.999510
451.331808	1.000636
451.705917	0.999524
452.079965	1.000436
452.453954	1.000647
452.827883	1.000258
453.201752	1.000742
453.575562	1.000141
453.949311	1.000191
454.323001	1.000485
454.696632	1.000678
455.070202	0.999788
455.443713	1.000350
455.817164	0.999927
456.190556	1.000044
456.563888	1.001090
456.937160	1.000457
457.310373	0.999807
457.683526	1.001005
458.056619	1.000905
458.429653	1.000196
458.802628	1.000498
459.175542	1.001508
459.548398	1.000372
459.921194	1.000785
460.293930	1.000905
460.666607	1.000635
461.039224	1.000530
461.411782	1.000273
461.784280	1.000240
462.156719	1.001496
462.529099	1.000932
462.901419	1.000605
463.273680	1.000256
463.645882	1.000132
464.018024	1.001550
464.390106	1.000188
464.762130	1.000291
465.134094	1.000581
465.505999	1.000027
465.877845	0.999786
466.249631	0.999735
466.621358	1.000180
466.993026	1.000577
467.364634	1.000887
467.736184	1.000607
468.107674	1.000688
468.479105	0.999529
468.850477	1.000713
469.221790	1.000633
469.593043	1.000519
469.964238	1.000160
470.335373	1.000234
470.706449	1.000252
471.077467	1.001074
471.448425	1.000586
471.819324	0.999953
472.190164	1.000536
472.560945	1.000080
472.931667	1.000542
473.302330	1.000563
473.672934	1.000657
474.043479	1.000355
474.413965	1.000547
474.784393	1.000856
475.154761	1.000653
475.525070	0.999802
475.895321	1.000791
476.265513	1.000544
476.635645	1.000819
477.005719	1.000518
477.375734	1.000949
477.745691	1.000686
478.115588	1.000963
478.485427	1.000154
478.855207	1.000228
479.224928	1.000444
479.594591	1.000543
479.964194	0.999943
480.333739	1.000966
480.703226	1.000564
481.072653	0.999763
481.442022	1.000557
481.811333	1.000449
482.180584	0.999985
482.549777	1.000532
482.918912	1.000447
483.287988	1.000455
483.657005	0.999884
484.025964	1.000247
484.394864	1.000379
484.763706	1.000642
485.132489	1.000701
485.501213	1.000622
485.869879	1.000532
486.238487	0.999641
486.607036	1.001041
486.975527	1.000565
487.343959	0.999840
487.712333	1.001006
488.080648	1.000294
488.448905	1.000626
488.817104	1.000226
489.185244	0.999922
489.553326	1.000498
489.921350	1.000326
490.289315	1.000291
490.657222	0.999363
491.025070	1.000998
491.392861	1.000817
491.760593	1.000487
492.128267	1.000213
492.495883	1.000020
492.863440	1.000549
493.230939	1.000531
493.598380	1.001411
493.965763	1.000472
494.333088	0.999941
494.700354	0.999968
495.067563	1.000465
495.434713	1.001072
495.801805	1.000829
496.168839	1.000671
496.535815	1.000753
496.902733	1.000387
497.269593	1.000602
497.636395	0.999777
498.003139	1.000076
498.369825	1.001006
498.736453	1.001655
499.103023	1.000713
499.469535	1.000213
499.835989	1.000852
500.202385	0.999745
500.568723	0.999992
500.935003	1.000209
501.301226	1.000793
501.667390	1.000035
502.033497	1.000427
502.399546	1.000033
502.765537	1.000820
503.131470	1.000019
503.497345	1.000969
503.863163	1.000946
504.228923	1.000536
504.594625	1.000607
504.960269	1.000518
505.325856	1.001136
505.691385	1.001012
506.056856	1.000111
506.422270	1.000734
506.787625	1.000360
507.152924	1.000737
507.518164	1.000986
507.883347	1.000997
508.248472	1.001048
508.613540	1.000056
508.978550	1.000817
509.343503	1.000438
509.708398	1.000850
510.073236	1.000971
510.438016	0.999554
510.802738	1.000131
511.167403	1.000362
511.532010	1.000769
511.896561	1.000582
512.261053	1.000081
512.625488	1.000429
512.989866	1.000813
513.354186	0.999986
513.718449	1.000897
514.082655	1.000229
514.446803	1.000545
514.810894	1.000847
515.174927	1.000473
515.538904	1.001227
515.902822	1.000518
516.266684	1.001022
516.630488	1.000668
516.994235	1.000420
517.357925	1.000581
517.721558	1.000416
518.085133	1.000199
518.448651	1.000138
518.812112	1.000180
519.175516	1.000647
519.538863	1.000436
519.902152	1.001214
520.265385	1.001020
520.628560	1.000433
520.991678	1.000565
521.354739	1.001227
521.717743	1.000598
522.080690	0.999751
522.443580	1.000621
522.806413	0.999864
523.169189	1.000842
523.531908	1.000032
523.894569	1.000657
524.257174	1.000806
524.619722	1.000675
524.982213	1.000559
525.344647	1.000067
525.707025	0.999970
526.069345	0.999478
526.431608	1.000824
526.793815	1.000723
527.155964	1.001103
527.518057	1.001409
527.880093	1.000743
528.242072	0.999911
528.603995	1.000596
528.965860	1.000820
529.327669	1.000036
529.689421	0.999773
530.051117	1.000650
530.412755	1.001230
530.774337	1.000248
531.135862	1.000902
531.497331	1.000444
531.858743	1.001122
532.220098	0.999991
532.581396	1.000818
532.942638	1.000934
533.303824	1.001383
533.664953	1.000846
534.026025	1.000970
534.387040	1.000143
534.747999	1.000361
535.108902	1.000490
535.469748	1.001218
535.830537	1.000546
536.191270	1.000094
536.551947	1.000970
536.912567	1.000750
537.273131	1.001766
537.633638	1.000277
537.994089	1.000847
538.354483	1.000327
538.714821	1.000385
539.075103	1.000315
539.435328	1.001215
539.795497	1.000919
540.155609	1.000636
540.515665	1.000820
540.875665	1.000358
541.235609	1.000376
541.595496	0.999913
541.955328	1.001005
542.315102	1.000512
542.674821	1.000779
543.034483	1.001157
543.394090	1.000053
543.753640	1.000542
544.113134	1.000543
544.472571	1.001314
544.831953	1.000740
545.191278	1.001199
545.550548	0.999837
545.909761	1.000327
546.268918	1.001570
546.628019	1.001340
546.987064	1.000194
547.346053	1.000172
547.704986	1.000311
548.063863	0.999712
548.422684	1.000340
548.781449	1.000640
549.140158	1.001244
549.498811	1.000066
549.857408	0.999777
550.215949	1.000108
550.574434	1.000507
550.932864	1.000769
551.291237	1.000155
551.649555	1.000723
552.007817	1.000502
552.366022	1.000525
552.724173	1.000917
553.082267	1.000618
553.440305	0.999613
553.798288	0.999730
554.156215	1.000433
554.514086	1.001005
554.871902	1.000248
555.229661	1.000240
555.587365	1.000226
555.945014	1.001466
556.302606	1.000003
556.660143	1.001215
557.017625	1.001000
557.375050	1.000188
557.732421	1.000189
558.089735	1.000162
558.446994	1.000167
558.804197	1.000213
559.161345	1.000178
559.518437	1.000664
559.875474	1.000239
560.232455	1.000891
560.589381	1.001245
560.946251	1.000074
561.303065	1.000864
561.659825	1.000944
562.016528	1.001026
562.373177	1.000410
562.729770	1.000285
563.086307	0.999549
563.442789	1.000524
563.799216	0.999951
564.155587	1.000949
564.511904	1.001095
564.868164	0.999878
565.224370	1.000679
565.580520	1.000467
565.936615	1.000919
566.292654	1.000707
566.648638	1.001172
567.004567	1.000047
567.360441	1.001108
567.716260	1.000180
568.072023	0.999835
568.427732	1.000809
568.783385	1.000033
569.138982	1.001032
569.494525	1.000094
569.850013	1.001065
570.205445	1.000847
570.560823	1.000318
570.916145	1.001072
571.271412	1.000357
571.626625	1.000675
571.981782	1.000204
572.336884	1.000381
572.691931	1.000874
573.046923	1.000173
573.401860	1.000587
573.756743	1.000447
574.111570	1.000746
574.466342	1.001457
574.821059	1.000990
575.175722	1.000560
575.530330	0.999604
575.884882	1.000189
576.239380	1.000554
576.593823	1.000247
576.948211	1.000539
577.302544	1.000616
577.656823	1.000653
578.011047	1.000185
578.365216	1.000840
578.719330	1.000974
579.073389	1.000151
579.427394	1.000677
579.781344	1.001188
580.135239	0.999561
580.489080	1.000260
580.842866	1.000517
581.196597	1.000338
581.550273	0.999945
581.903895	1.000680
582.257463	1.000534
582.610975	1.000217
582.964434	1.000367
583.317837	1.000794
583.671186	1.000794
584.024481	1.000083
584.377721	1.000280
584.730906	1.000529
585.084037	1.001370
585.437113	1.000906
585.790135	1.000261
586.143103	1.000886
586.496016	1.000153
586.848874	1.000760
587.201679	1.000821
587.554428	1.000282
587.907124	1.001353
588.259765	1.001014
588.612352	1.000574
588.964884	1.000935
589.317362	1.000673
589.669786	0.999997
590.022155	0.999677
590.374470	1.000434
590.726731	0.999799
591.078937	1.000929
591.431090	1.000379
591.783188	1.000291
592.135232	1.001001
592.487222	1.000920
592.839157	1.000658
593.191038	1.000506
593.542866	1.000132
593.894639	0.999919
594.246358	1.000590
594.598022	1.000989
594.949633	1.001012
595.301190	0.999888
595.652692	0.999978
596.004141	1.000330
596.355535	1.000418
596.706876	1.000726
597.058162	1.000348
597.409395	1.000418
597.760573	1.000190
598.111698	1.000179
598.462768	0.999567
598.813785	0.999746
599.164748	1.000722
599.515657	0.999944
599.866511	1.000959
600.217312	1.001100
600.568060	1.000509
600.918753	1.000694
601.269392	1.000591
601.619978	1.000550
601.970510	1.001070
602.320988	1.000792
602.671412	1.000517
603.021783	1.000877
603.372100	1.000933
603.722363	1.000461
604.072572	0.999885
604.422728	0.999759
604.772830	1.000167
605.122878	1.001127
605.472872	1.000403
605.822813	1.000581
606.172701	1.000250
606.522534	1.000351
606.872314	1.001220
607.222041	0.999940
607.571714	1.000149
607.921333	1.000054
608.270899	1.000383
608.620411	1.000437
608.969870	1.000882
609.319276	1.000543
609.668627	1.001114
610.017926	1.000241
610.367171	1.000862
610.716362	1.000169
611.065500	0.999932
611.414585	1.000631
611.763616	0.999940
612.112594	1.000064
612.461518	0.999480
612.810389	1.001118
613.159207	1.000351
613.507971	1.000049
613.856682	1.000937
614.205340	0.999328
614.553945	1.000437
614.902496	0.999821
615.250994	1.000754
615.599439	1.001052
615.947830	0.999921
616.296169	1.000769
616.644454	1.000550
616.992686	1.000231
617.340864	1.001262
617.688990	1.000187
618.037063	1.000772
618.385082	1.000078
618.733048	0.999551
619.080961	1.000140
619.428821	1.000803
619.776628	1.000005
620.124382	1.001565
620.472083	1.000549
620.819731	1.001300
621.167326	1.001094
621.514868	1.000960
621.862357	1.001373
622.209793	1.001007
622.557176	1.000325
622.904506	1.000188
623.251783	1.000788
623.599007	1.000960
623.946179	1.000018
624.293297	1.001147
624.640363	1.000873
624.987376	1.000054
625.334336	1.000805
625.681243	1.001049
626.028097	1.001044
626.374899	1.000489
626.721647	1.001126
627.068343	1.000819
627.414987	1.000472
627.761577	0.999339
628.108115	0.999921
628.454600	1.001269
628.801032	1.001197
629.147412	1.001202
629.493739	1.001377
629.840014	1.000281
630.186236	1.000713
630.532405	1.000007
630.878521	0.999784
631.224585	1.000244
631.570597	1.000308
631.916556	1.001105
632.262462	0.999607
632.608316	1.001055
632.954117	0.999854
633.299866	1.000767
633.645562	1.000061
633.991206	1.000529
634.336797	1.000422
634.682336	1.000791
635.027823	1.000634
635.373257	1.000324
635.718639	1.001445
636.063968	1.000381
636.409245	0.999389
636.754470	1.001109
637.099642	1.000816
637.444762	1.001226
637.789829	1.000222
638.134845	0.999575
638.479808	1.000687
638.824719	1.001433
639.169577	1.001131
639.514383	1.001101
639.859137	1.000760
640.203839	1.001150
640.548489	1.000754
640.893086	1.000318
641.237632	1.000817
641.582125	1.001001
641.926566	1.001415
642.270955	1.001253
642.615292	1.000380
642.959576	1.001444
643.303809	1.001052
643.647990	1.000657
643.992118	1.000662
644.336195	1.000336
644.680219	1.000149
645.024192	1.000224
645.368112	0.999494
645.711981	1.000451
646.055797	1.000621
646.399562	1.000662
646.743274	1.001352
647.086935	1.000426
647.430544	1.000572
647.774101	1.000132
648.117606	1.000326
648.461059	1.001160
648.804460	1.000675
649.147810	1.000462
649.491108	1.000963
649.834354	1.001172
650.177548	1.000880
650.520690	1.000696
650.863781	1.000321
651.206820	1.000801
651.549807	1.000780
651.892742	1.001219
652.235626	1.001428
652.578458	1.000755
652.921238	1.002046
653.263967	1.001090
653.606644	0.999987
653.949269	1.001427
654.291843	0.999614
654.634365	1.001475
654.976836	0.999978
655.319255	1.000857
655.661622	1.000885
656.003938	0.999991
656.346203	1.000111
656.688416	1.001969
657.030577	0.999650
657.372687	1.000956
657.714746	1.000383
658.056753	1.000600
658.398708	1.000425
658.740612	1.000526
659.082465	1.001006
659.424266	1.001045
659.766016	0.999718
660.107715	1.001137
660.449362	0.999740
660.790958	1.000382
661.132503	1.001416
661.473996	1.000085
661.815438	1.000207
662.156829	1.000596
662.498168	1.001798
662.839456	0.999593
663.180693	1.001264
663.521879	1.000080
663.863013	1.000891
664.204097	1.000431
664.545129	1.000469
664.886110	1.000162
665.227040	1.000174
665.567918	1.000697
665.908746	0.999565
666.249522	0.999872
666.590248	1.000735
666.930922	1.000725
667.271545	1.000626
667.612118	1.000897
667.952639	1.000588
668.293109	0.999674
668.633528	1.000176
668.973896	1.000602
669.314213	1.000227
669.654480	1.001097
669.994695	0.999489
670.334859	1.000753
670.674973	1.000914
671.015035	1.000953
671.355047	1.000495
671.695008	1.000871
672.034918	1.000405
672.374777	1.000097
672.714585	1.000666
673.054342	1.001449
673.394049	0.999501
673.733705	0.999791
674.073310	1.000479
674.412864	0.999855
674.752368	1.000285
675.091820	1.001777
675.431223	1.001488
675.770574	1.000407
676.109875	1.000153
676.449125	0.999655
676.788324	1.000504
677.127473	1.001471
677.466571	1.000893
677.805619	1.000807
678.144616	1.000970
678.483562	1.001348
678.822458	1.000849
679.161303	0.999976
679.500098	1.000952
679.838842	1.000826
680.177535	1.000576
680.516179	0.999689
680.854771	0.999615
681.193314	1.000664
681.531805	0.999886
681.870247	0.999729
682.208638	1.000415
682.546978	1.000062
682.885268	0.999316
683.223508	1.000506
683.561697	1.000076
683.899836	1.000520
684.237925	0.999225
684.575963	1.000037
684.913951	0.999811
685.251889	1.000296
685.589776	0.999869
685.927614	1.000779
686.265401	1.000096
686.603137	0.999505
686.940824	1.000306
687.278460	1.000555
687.616046	0.999899
687.953582	1.000686
688.291068	1.000671
688.628504	1.000639
