Dividing Wavelength (nm)	Counts (n)	Blue Motor Position (mm): 48.800000	Red Motor Position (mm): 0.000000	
326.493990	0.999263
326.888308	0.999263
327.282561	0.999263
327.676750	1.000648
328.070874	1.000958
328.464933	1.000870
328.858929	1.001231
329.252859	0.999603
329.646726	0.998671
330.040528	1.000343
330.434265	0.999387
330.827938	0.999582
331.221547	0.999835
331.615091	1.000875
332.008571	1.000842
332.401986	0.999463
332.795338	1.000231
333.188625	1.000860
333.581847	0.999374
333.975006	0.999717
334.368100	0.999899
334.761129	0.998171
335.154095	1.000633
335.546996	0.999999
335.939833	0.999707
336.332606	1.000083
336.725315	0.998571
337.117960	0.999548
337.510540	0.999162
337.903056	0.999196
338.295508	1.001403
338.687896	0.999586
339.080220	0.999939
339.472480	0.998797
339.864676	0.999850
340.256807	0.998141
340.648875	1.001152
341.040879	0.999067
341.432818	1.000117
341.824694	0.999631
342.216506	1.000157
342.608253	1.000409
342.999937	0.999787
343.391557	1.000173
343.783113	1.002455
344.174605	0.999592
344.566033	0.999788
344.957397	1.000141
345.348697	1.001050
345.739934	1.000865
346.131106	1.000482
346.522215	0.999481
346.913260	0.999929
347.304241	0.999826
347.695159	1.000985
348.086012	1.000727
348.476802	0.999514
348.867528	1.000100
349.258191	1.000229
349.648789	1.000564
350.039324	0.998836
350.429796	0.999039
350.820203	0.998514
351.210548	1.000679
351.600828	1.000494
351.991045	1.000120
352.381198	1.000231
352.771288	1.000636
353.161314	1.000528
353.551276	0.999293
353.941175	0.998380
354.331010	0.999485
354.720782	1.000653
355.110490	0.999726
355.500135	0.999996
355.889717	0.999649
356.279235	1.000430
356.668689	0.999294
357.058080	0.999226
357.447408	0.998234
357.836672	0.999837
358.225873	0.999116
358.615010	0.999370
359.004084	0.999126
359.393095	1.000817
359.782043	0.999296
360.170927	1.001274
360.559748	0.999286
360.948505	0.999882
361.337199	0.999398
361.725830	1.000251
362.114398	1.000412
362.502903	0.998348
362.891344	0.998488
363.279722	0.997921
363.668037	1.000068
364.056289	0.999689
364.444478	1.001386
364.832603	0.999355
365.220665	0.998932
365.608665	0.999856
365.996601	0.999825
366.384474	0.999009
366.772284	0.999781
367.160031	0.997490
367.547715	0.998913
367.935336	0.998024
368.322893	0.997433
368.710388	0.996271
369.097820	0.995422
369.485189	0.993766
369.872495	0.995321
370.259738	0.994186
370.646918	0.993376
371.034035	0.992302
371.421090	0.992591
371.808081	0.991084
372.195010	0.990365
372.581875	0.990166
372.968678	0.988358
373.355418	0.988255
373.742096	0.985642
374.128710	0.986360
374.515262	0.986954
374.901751	0.987412
375.288177	0.985851
375.674540	0.986714
376.060841	0.985199
376.447079	0.985284
376.833254	0.985041
377.219367	0.985470
377.605417	0.984564
377.991404	0.985797
378.377329	0.986102
378.763191	0.985835
379.148991	0.987337
379.534727	0.987547
379.920402	0.987136
380.306013	0.987530
380.691563	0.989636
381.077049	0.988166
381.462474	0.989648
381.847835	0.988512
382.233134	0.991127
382.618371	0.992792
383.003545	0.992070
383.388657	0.992173
383.773706	0.993856
384.158693	0.993744
384.543618	0.996290
384.928480	0.995278
385.313280	0.996678
385.698017	0.996212
386.082692	0.996684
386.467305	0.995515
386.851856	0.999275
387.236344	0.998178
387.620770	0.999494
388.005133	1.000003
388.389435	0.998944
388.773674	0.999718
389.157851	0.998969
389.541965	1.000187
389.926018	1.000284
390.310008	1.000884
390.693936	1.000578
391.077802	1.001110
391.461606	1.000242
391.845348	1.000639
392.229027	0.999044
392.612645	1.001456
392.996200	1.001276
393.379694	0.999911
393.763125	1.001154
394.146494	1.000748
394.529801	0.999748
394.913047	1.000027
395.296230	1.000365
395.679351	1.000334
396.062410	1.000525
396.445408	1.001238
396.828343	1.001660
397.211217	1.000255
397.594028	0.999858
397.976778	1.000338
398.359466	1.000763
398.742092	1.001092
399.124656	1.000347
399.507158	1.000269
399.889598	1.001320
400.271977	1.000662
400.654294	0.999468
401.036549	1.001531
401.418742	1.001154
401.800874	1.000936
402.182944	1.000848
402.564952	1.000976
402.946898	1.001792
403.328783	1.001809
403.710606	1.000428
404.092367	1.000571
404.474067	1.001562
404.855705	1.001849
405.237282	1.000525
405.618797	1.000958
406.000250	1.001011
406.381642	1.000357
406.762972	1.000544
407.144240	1.000600
407.525447	1.000422
407.906593	1.001104
408.287677	0.999809
408.668700	1.001242
409.049661	1.000916
409.430560	0.999702
409.811399	1.000125
410.192176	1.000380
410.572891	1.001132
410.953545	1.000958
411.334138	1.001238
411.714669	1.000584
412.095139	1.001464
412.475547	1.001015
412.855894	1.001042
413.236180	1.000986
413.616405	1.000642
413.996568	1.000405
414.376670	1.000596
414.756711	1.000721
415.136691	1.000953
415.516609	1.000353
415.896466	1.001498
416.276262	1.000396
416.655997	1.001160
417.035670	1.000676
417.415283	1.000600
417.794834	1.001380
418.174324	1.001153
418.553753	1.000202
418.933121	1.000920
419.312428	1.001420
419.691674	1.001860
420.070859	1.001482
420.449983	1.000967
420.829045	1.000832
421.208047	1.001852
421.586988	1.000495
421.965867	0.999566
422.344686	1.000787
422.723444	1.000422
423.102141	1.000953
423.480777	1.000332
423.859352	1.000614
424.237866	1.000921
424.616319	1.001079
424.994712	1.001723
425.373044	1.001087
425.751314	1.001226
426.129524	1.001569
426.507673	1.000581
426.885762	1.000361
427.263789	1.000659
427.641756	1.000750
428.019662	1.001674
428.397508	1.000968
428.775292	1.000580
429.153016	1.000546
429.530679	1.000865
429.908282	1.001489
430.285824	1.000362
430.663305	1.000771
431.040726	1.000715
431.418086	1.000644
431.795385	1.001493
432.172624	1.001956
432.549802	1.000987
432.926920	1.000753
433.303977	1.001108
433.680974	1.001567
434.057910	1.000906
434.434786	1.000984
434.811601	1.001808
435.188355	1.001354
435.565050	1.001543
435.941683	1.001073
436.318257	1.000280
436.694770	1.001415
437.071222	1.001872
437.447614	1.000945
437.823946	1.001402
438.200218	1.001458
438.576429	1.000812
438.952580	1.000856
439.328670	1.000160
439.704700	1.000596
440.080670	1.002216
440.456580	1.001374
440.832429	1.001120
441.208218	1.001294
441.583947	1.002045
441.959616	1.000433
442.335224	1.001926
442.710773	1.001811
443.086261	1.001362
443.461689	1.000586
443.837057	1.000607
444.212365	1.002013
444.587612	1.001964
444.962800	1.001227
445.337927	1.001252
445.712995	1.000923
446.088002	1.000801
446.462949	1.001397
446.837837	1.002481
447.212664	1.001310
447.587431	1.001405
447.962139	1.001050
448.336786	1.000152
448.711374	1.000798
449.085901	1.002343
449.460369	1.001506
449.834776	1.000777
450.209124	1.001526
450.583412	1.001309
450.957640	1.001122
451.331808	1.001658
451.705917	1.000750
452.079965	1.001576
452.453954	1.001233
452.827883	1.002099
453.201752	1.001904
453.575562	1.000833
453.949311	1.002091
454.323001	1.001370
454.696632	1.001833
455.070202	1.001696
455.443713	1.001085
455.817164	1.001442
456.190556	1.001773
456.563888	1.002058
456.937160	1.002199
457.310373	1.000684
457.683526	1.001638
458.056619	1.002355
458.429653	1.001235
458.802628	1.000508
459.175542	1.001626
459.548398	1.000757
459.921194	1.001408
460.293930	1.001804
460.666607	1.001772
461.039224	1.001315
461.411782	1.001177
461.784280	1.000670
462.156719	1.001717
462.529099	1.001569
462.901419	1.001961
463.273680	1.001080
463.645882	1.001567
464.018024	1.002067
464.390106	1.001233
464.762130	1.001435
465.134094	1.001661
465.505999	1.001667
465.877845	1.001300
466.249631	1.001122
466.621358	1.000391
466.993026	1.001287
467.364634	1.001463
467.736184	1.001958
468.107674	1.002080
468.479105	1.001832
468.850477	1.001370
469.221790	1.002264
469.593043	1.001195
469.964238	1.001227
470.335373	1.001004
470.706449	1.001604
471.077467	1.001371
471.448425	1.001329
471.819324	1.001679
472.190164	1.001386
472.560945	1.001113
472.931667	1.002008
473.302330	1.001130
473.672934	1.002342
474.043479	1.001708
474.413965	1.001071
474.784393	1.001876
475.154761	1.001279
475.525070	1.001917
475.895321	1.001968
476.265513	1.001937
476.635645	1.001896
477.005719	1.001498
477.375734	1.001053
477.745691	1.001527
478.115588	1.001084
478.485427	1.001809
478.855207	1.001426
479.224928	1.001102
479.594591	1.001811
479.964194	1.001028
480.333739	1.001956
480.703226	1.000938
481.072653	1.001627
481.442022	1.001624
481.811333	1.001039
482.180584	1.001357
482.549777	1.002051
482.918912	1.002041
483.287988	1.001858
483.657005	1.001569
484.025964	1.001939
484.394864	1.001096
484.763706	1.001523
485.132489	1.001551
485.501213	1.001820
485.869879	1.001247
486.238487	1.000670
486.607036	1.001827
486.975527	1.001309
487.343959	1.001324
487.712333	1.001716
488.080648	1.001033
488.448905	1.001293
488.817104	1.001481
489.185244	1.001497
489.553326	1.001517
489.921350	1.001718
490.289315	1.001589
490.657222	1.000984
491.025070	1.001434
491.392861	1.001692
491.760593	1.001351
492.128267	1.001033
492.495883	1.001224
492.863440	1.001596
493.230939	1.001280
493.598380	1.001925
493.965763	1.001916
494.333088	1.000841
494.700354	1.001222
495.067563	1.001348
495.434713	1.001830
495.801805	1.001656
496.168839	1.002045
496.535815	1.001380
496.902733	1.001400
497.269593	1.001322
497.636395	1.000850
498.003139	1.001417
498.369825	1.001617
498.736453	1.001840
499.103023	1.001754
499.469535	1.001272
499.835989	1.002248
500.202385	1.001369
500.568723	1.001539
500.935003	1.001602
501.301226	1.002125
501.667390	1.000756
502.033497	1.001559
502.399546	1.001713
502.765537	1.001358
503.131470	1.001528
503.497345	1.001411
503.863163	1.001800
504.228923	1.000887
504.594625	1.001353
504.960269	1.001899
505.325856	1.002231
505.691385	1.002002
506.056856	1.001309
506.422270	1.001407
506.787625	1.001484
507.152924	1.001871
507.518164	1.000803
507.883347	1.000951
508.248472	1.001606
508.613540	1.001701
508.978550	1.001699
509.343503	1.001038
509.708398	1.002108
510.073236	1.002257
510.438016	1.001208
510.802738	1.000756
511.167403	1.001683
511.532010	1.001434
511.896561	1.001393
512.261053	1.001271
512.625488	1.002252
512.989866	1.002276
513.354186	1.001417
513.718449	1.001701
514.082655	1.000856
514.446803	1.001922
514.810894	1.001791
515.174927	1.001624
515.538904	1.001824
515.902822	1.001689
516.266684	1.001366
516.630488	1.001667
516.994235	1.001954
517.357925	1.002034
517.721558	1.001600
518.085133	1.001055
518.448651	1.001339
518.812112	1.002096
519.175516	1.001557
519.538863	1.001387
519.902152	1.001922
520.265385	1.001999
520.628560	1.001113
520.991678	1.001236
521.354739	1.002193
521.717743	1.001571
522.080690	1.001020
522.443580	1.002104
522.806413	1.001115
523.169189	1.002341
523.531908	1.000670
523.894569	1.002057
524.257174	1.001548
524.619722	1.001568
524.982213	1.001745
525.344647	1.001310
525.707025	1.001574
526.069345	1.000798
526.431608	1.001248
526.793815	1.002082
527.155964	1.001601
527.518057	1.001993
527.880093	1.001359
528.242072	1.001280
528.603995	1.000955
528.965860	1.002032
529.327669	1.001334
529.689421	1.001067
530.051117	1.001444
530.412755	1.001544
530.774337	1.001199
531.135862	1.002016
531.497331	1.001450
531.858743	1.002059
532.220098	1.001086
532.581396	1.002072
532.942638	1.001795
533.303824	1.002021
533.664953	1.001650
534.026025	1.002154
534.387040	1.001772
534.747999	1.001465
535.108902	1.001324
535.469748	1.002237
535.830537	1.002380
536.191270	1.001754
536.551947	1.001163
536.912567	1.001469
537.273131	1.001806
537.633638	1.001669
537.994089	1.001790
538.354483	1.001237
538.714821	1.001553
539.075103	1.001793
539.435328	1.001899
539.795497	1.001936
540.155609	1.001557
540.515665	1.001849
540.875665	1.001024
541.235609	1.001850
541.595496	1.000921
541.955328	1.001631
542.315102	1.001433
542.674821	1.001954
543.034483	1.001440
543.394090	1.001004
543.753640	1.001942
544.113134	1.001134
544.472571	1.001758
544.831953	1.001870
545.191278	1.001634
545.550548	1.000854
545.909761	1.001735
546.268918	1.002010
546.628019	1.002213
546.987064	1.001119
547.346053	1.000690
547.704986	1.000752
548.063863	1.001210
548.422684	1.001338
548.781449	1.001754
549.140158	1.002053
549.498811	1.000991
549.857408	1.001418
550.215949	1.000621
550.574434	1.001235
550.932864	1.002341
551.291237	1.001135
551.649555	1.001942
552.007817	1.001858
552.366022	1.001794
552.724173	1.002084
553.082267	1.001580
553.440305	1.001184
553.798288	1.000750
554.156215	1.001379
554.514086	1.001232
554.871902	1.001503
555.229661	1.000468
555.587365	1.001455
555.945014	1.002518
556.302606	1.001107
556.660143	1.001824
557.017625	1.001498
557.375050	1.000972
557.732421	1.001314
558.089735	1.000846
558.446994	1.001439
558.804197	1.001477
559.161345	1.001313
559.518437	1.001529
559.875474	1.001774
560.232455	1.001493
560.589381	1.001710
560.946251	1.001429
561.303065	1.001381
561.659825	1.001105
562.016528	1.002358
562.373177	1.001722
562.729770	1.000621
563.086307	1.000549
563.442789	1.002228
563.799216	1.001409
564.155587	1.001899
564.511904	1.001780
564.868164	1.000209
565.224370	1.001025
565.580520	1.001357
565.936615	1.001236
566.292654	1.001677
566.648638	1.001823
567.004567	1.001708
567.360441	1.002057
567.716260	1.001160
568.072023	1.000947
568.427732	1.001611
568.783385	1.001830
569.138982	1.001568
569.494525	1.001019
569.850013	1.001657
570.205445	1.001293
570.560823	1.001077
570.916145	1.001759
571.271412	1.001429
571.626625	1.001869
571.981782	1.000769
572.336884	1.001696
572.691931	1.001382
573.046923	1.001868
573.401860	1.001645
573.756743	1.001473
574.111570	1.001179
574.466342	1.002199
574.821059	1.001345
575.175722	1.001285
575.530330	1.001238
575.884882	1.000814
576.239380	1.000865
576.593823	1.001543
576.948211	1.001352
577.302544	1.001169
577.656823	1.001686
578.011047	1.000397
578.365216	1.001928
578.719330	1.001100
579.073389	1.000706
579.427394	1.001469
579.781344	1.001857
580.135239	1.000655
580.489080	1.001543
580.842866	1.000530
581.196597	1.001611
581.550273	1.000929
581.903895	1.001487
582.257463	1.001946
582.610975	1.000916
582.964434	1.002101
583.317837	1.001632
583.671186	1.001496
584.024481	1.001418
584.377721	1.000933
584.730906	1.001304
585.084037	1.002621
585.437113	1.001846
585.790135	1.001421
586.143103	1.000805
586.496016	1.001767
586.848874	1.001571
587.201679	1.001423
587.554428	1.001898
587.907124	1.000909
588.259765	1.001008
588.612352	1.001805
588.964884	1.001574
589.317362	1.000980
589.669786	1.000383
590.022155	1.001253
590.374470	1.001060
590.726731	1.000228
591.078937	1.001345
591.431090	1.001672
591.783188	1.000736
592.135232	1.001724
592.487222	1.001332
592.839157	1.001432
593.191038	1.001908
593.542866	1.001386
593.894639	0.999974
594.246358	1.001412
594.598022	1.001144
594.949633	1.001075
595.301190	1.001684
595.652692	1.000844
596.004141	1.000770
596.355535	1.001236
596.706876	1.001241
597.058162	1.001540
597.409395	1.000594
597.760573	1.000419
598.111698	1.001498
598.462768	1.000444
598.813785	1.000592
599.164748	1.001098
599.515657	1.000343
599.866511	1.001436
600.217312	1.002102
600.568060	1.001018
600.918753	1.001287
601.269392	1.001523
601.619978	1.000707
601.970510	1.001125
602.320988	1.000957
602.671412	1.001178
603.021783	1.001638
603.372100	1.001153
603.722363	1.001742
604.072572	1.001337
604.422728	1.000705
604.772830	1.000918
605.122878	1.000921
605.472872	1.000866
605.822813	1.000776
606.172701	1.000599
606.522534	1.001280
606.872314	1.002096
607.222041	1.000722
607.571714	1.001351
607.921333	1.001152
608.270899	1.000716
608.620411	1.000856
608.969870	1.001645
609.319276	1.001346
609.668627	1.001432
610.017926	1.000557
610.367171	1.001163
610.716362	1.001461
611.065500	1.000321
611.414585	1.001041
611.763616	1.000009
612.112594	1.000733
612.461518	1.000425
612.810389	1.000971
613.159207	1.001336
613.507971	1.000062
613.856682	1.001449
614.205340	1.000083
614.553945	1.001148
614.902496	1.000718
615.250994	1.002018
615.599439	1.001246
615.947830	1.001103
616.296169	1.000776
616.644454	1.001313
616.992686	1.001442
617.340864	1.001802
617.688990	1.000440
618.037063	1.001245
618.385082	1.000844
618.733048	1.000563
619.080961	1.000959
619.428821	1.001580
619.776628	1.000951
620.124382	1.001355
620.472083	1.000997
620.819731	1.001955
621.167326	1.001292
621.514868	1.001623
621.862357	1.001207
622.209793	1.000263
622.557176	1.000824
622.904506	0.999982
623.251783	1.000497
623.599007	1.001598
623.946179	1.000260
624.293297	1.001137
624.640363	1.001720
624.987376	1.000340
625.334336	1.000679
625.681243	1.000751
626.028097	1.001028
626.374899	1.000582
626.721647	1.001825
627.068343	1.000954
627.414987	1.000675
627.761577	1.000638
628.108115	1.001180
628.454600	1.001295
628.801032	1.000791
629.147412	1.001402
629.493739	1.002170
629.840014	1.000656
630.186236	1.000563
630.532405	1.001546
630.878521	1.000791
631.224585	1.000824
631.570597	1.000549
631.916556	1.001083
632.262462	0.999882
632.608316	1.000788
632.954117	1.000572
633.299866	1.000251
633.645562	1.000846
633.991206	1.001294
634.336797	1.001101
634.682336	1.001616
635.027823	1.001725
635.373257	1.001216
635.718639	1.002444
636.063968	1.000817
636.409245	1.000932
636.754470	1.000641
637.099642	1.000986
637.444762	1.001402
637.789829	1.000525
638.134845	1.000151
638.479808	1.001242
638.824719	1.000433
639.169577	1.000325
639.514383	1.001041
639.859137	1.001789
640.203839	1.001122
640.548489	1.000129
640.893086	1.000819
641.237632	1.000410
641.582125	1.000465
641.926566	1.001883
642.270955	1.000813
642.615292	1.000246
642.959576	1.000487
643.303809	1.001598
643.647990	0.999993
643.992118	1.001292
644.336195	1.000428
644.680219	1.000230
645.024192	1.000854
645.368112	1.000064
645.711981	1.001297
646.055797	1.000831
646.399562	1.000144
646.743274	1.001223
647.086935	1.000220
647.430544	0.999803
647.774101	1.000115
648.117606	1.000843
648.461059	1.001364
648.804460	1.001143
649.147810	1.000219
649.491108	1.000821
649.834354	1.000431
650.177548	1.000709
650.520690	1.000411
650.863781	1.000704
651.206820	1.000809
651.549807	1.000461
651.892742	1.001067
652.235626	1.000644
652.578458	1.000576
652.921238	1.001347
653.263967	1.002321
653.606644	1.000114
653.949269	1.001437
654.291843	1.000557
654.634365	1.001020
654.976836	1.000635
655.319255	1.001275
655.661622	1.000274
656.003938	1.000477
656.346203	0.999914
656.688416	1.000799
657.030577	1.000693
657.372687	1.000716
657.714746	1.000575
658.056753	1.000335
658.398708	1.000043
658.740612	1.001481
659.082465	1.001281
659.424266	1.000541
659.766016	0.999770
660.107715	1.000862
660.449362	1.000509
660.790958	1.000265
661.132503	1.000910
661.473996	0.999386
661.815438	1.001720
662.156829	1.000595
662.498168	1.001999
662.839456	1.000124
663.180693	1.000544
663.521879	1.001121
663.863013	1.001476
664.204097	1.000103
664.545129	1.000906
664.886110	1.000734
665.227040	1.000397
665.567918	1.000443
665.908746	1.000144
666.249522	1.000051
666.590248	1.000645
666.930922	1.000252
667.271545	1.000261
667.612118	1.000735
667.952639	1.001112
668.293109	0.999950
668.633528	0.999624
668.973896	1.000388
669.314213	0.999825
669.654480	1.000815
669.994695	0.999611
670.334859	1.000820
670.674973	0.999772
671.015035	1.000624
671.355047	0.999982
671.695008	0.999450
672.034918	1.000457
672.374777	1.000567
672.714585	0.999943
673.054342	1.001255
673.394049	1.000224
673.733705	0.999923
674.073310	1.001174
674.412864	1.000522
674.752368	1.000088
675.091820	1.001314
675.431223	1.000959
675.770574	0.999514
676.109875	0.999931
676.449125	1.000336
676.788324	0.999592
677.127473	1.001215
677.466571	1.000611
677.805619	1.000745
678.144616	1.001121
678.483562	1.001209
678.822458	1.000748
679.161303	1.000227
679.500098	1.000099
679.838842	1.000637
680.177535	1.000065
680.516179	1.000111
680.854771	1.000193
681.193314	1.000309
681.531805	1.000254
681.870247	1.001607
682.208638	1.000257
682.546978	1.000309
682.885268	0.999758
683.223508	0.999968
683.561697	1.000445
683.899836	1.000234
684.237925	0.999358
684.575963	0.999929
684.913951	0.999731
685.251889	0.999852
685.589776	0.999478
685.927614	1.000316
686.265401	0.999245
686.603137	1.000394
686.940824	1.000641
687.278460	0.999725
687.616046	0.999665
687.953582	1.000234
688.291068	1.000139
688.628504	1.000477
