Dividing Wavelength (nm)	Counts (n)	Blue Motor Position (mm): 46.400000	Red Motor Position (mm): 0.000000	
326.493990	1.000514
326.888308	1.000514
327.282561	1.000514
327.676750	1.000349
328.070874	1.001933
328.464933	1.000278
328.858929	1.002399
329.252859	0.999700
329.646726	1.000005
330.040528	1.000580
330.434265	1.001471
330.827938	0.999513
331.221547	0.999862
331.615091	0.999836
332.008571	1.001972
332.401986	0.999485
332.795338	1.000228
333.188625	1.001144
333.581847	1.000119
333.975006	0.999738
334.368100	1.000328
334.761129	0.999082
335.154095	1.000234
335.546996	0.998852
335.939833	1.000432
336.332606	0.999912
336.725315	0.999280
337.117960	1.001359
337.510540	1.000196
337.903056	0.999386
338.295508	1.000518
338.687896	1.001375
339.080220	1.000205
339.472480	0.999655
339.864676	1.000459
340.256807	0.997868
340.648875	1.000972
341.040879	1.000180
341.432818	1.000562
341.824694	0.999373
342.216506	1.001132
342.608253	1.000077
342.999937	0.999387
343.391557	1.001584
343.783113	1.001831
344.174605	1.000898
344.566033	0.999798
344.957397	1.001414
345.348697	1.000320
345.739934	0.999782
346.131106	1.000401
346.522215	0.999705
346.913260	0.999388
347.304241	1.000262
347.695159	1.000771
348.086012	0.999521
348.476802	0.999711
348.867528	0.999393
349.258191	0.998924
349.648789	1.001046
350.039324	0.999926
350.429796	0.999406
350.820203	0.997751
351.210548	1.000458
351.600828	0.999312
351.991045	0.999594
352.381198	0.999986
352.771288	0.999388
353.161314	1.000167
353.551276	1.000578
353.941175	0.999085
354.331010	1.001315
354.720782	0.999660
355.110490	0.999832
355.500135	1.000274
355.889717	1.000261
356.279235	0.999584
356.668689	1.001190
357.058080	0.999103
357.447408	0.999619
357.836672	1.000606
358.225873	0.999484
358.615010	1.000913
359.004084	0.998890
359.393095	0.999872
359.782043	0.998813
360.170927	1.000032
360.559748	0.999996
360.948505	0.998771
361.337199	1.000091
361.725830	0.999863
362.114398	1.000877
362.502903	0.999666
362.891344	0.998890
363.279722	0.998763
363.668037	1.000192
364.056289	0.999201
364.444478	1.001262
364.832603	0.998489
365.220665	0.999844
365.608665	1.000073
365.996601	0.999975
366.384474	0.998105
366.772284	1.000240
367.160031	0.997735
367.547715	0.998019
367.935336	0.998829
368.322893	0.996550
368.710388	0.995577
369.097820	0.994398
369.485189	0.990724
369.872495	0.991025
370.259738	0.987917
370.646918	0.985758
371.034035	0.983410
371.421090	0.980720
371.808081	0.976531
372.195010	0.974660
372.581875	0.969780
372.968678	0.966174
373.355418	0.965212
373.742096	0.958798
374.128710	0.956766
374.515262	0.954672
374.901751	0.951440
375.288177	0.949413
375.674540	0.947775
376.060841	0.944214
376.447079	0.941737
376.833254	0.938998
377.219367	0.938606
377.605417	0.933253
377.991404	0.934192
378.377329	0.933765
378.763191	0.932209
379.148991	0.930694
379.534727	0.928997
379.920402	0.928168
380.306013	0.929947
380.691563	0.927470
381.077049	0.927852
381.462474	0.929709
381.847835	0.929227
382.233134	0.931478
382.618371	0.935929
383.003545	0.933944
383.388657	0.936998
383.773706	0.939626
384.158693	0.942303
384.543618	0.945959
384.928480	0.947294
385.313280	0.948538
385.698017	0.951483
386.082692	0.953753
386.467305	0.956952
386.851856	0.960819
387.236344	0.962226
387.620770	0.966011
388.005133	0.967365
388.389435	0.970600
388.773674	0.973317
389.157851	0.975332
389.541965	0.978190
389.926018	0.981686
390.310008	0.983243
390.693936	0.984828
391.077802	0.986108
391.461606	0.988003
391.845348	0.989618
392.229027	0.989709
392.612645	0.992200
392.996200	0.993040
393.379694	0.993304
393.763125	0.995301
394.146494	0.995645
394.529801	0.997036
394.913047	0.995677
395.296230	0.997139
395.679351	0.997749
396.062410	0.998031
396.445408	0.998968
396.828343	0.999070
397.211217	0.998031
397.594028	0.998655
397.976778	0.999166
398.359466	0.999988
398.742092	1.000159
399.124656	0.999072
399.507158	0.999178
399.889598	1.000309
400.271977	1.000236
400.654294	0.999472
401.036549	1.000106
401.418742	1.000438
401.800874	0.999988
402.182944	0.999224
402.564952	1.000132
402.946898	0.999884
403.328783	1.000594
403.710606	0.999893
404.092367	1.001202
404.474067	1.001121
404.855705	1.000227
405.237282	1.000182
405.618797	1.000754
406.000250	0.999609
406.381642	0.999592
406.762972	1.000526
407.144240	1.000806
407.525447	0.999724
407.906593	1.000080
408.287677	0.999330
408.668700	1.000632
409.049661	1.000186
409.430560	0.999430
409.811399	0.999734
410.192176	0.999970
410.572891	1.001111
410.953545	0.999707
411.334138	1.000912
411.714669	1.000962
412.095139	1.000222
412.475547	1.000850
412.855894	1.000449
413.236180	1.000147
413.616405	0.999690
413.996568	1.000093
414.376670	1.000236
414.756711	0.999846
415.136691	1.000483
415.516609	0.999924
415.896466	1.000437
416.276262	0.999434
416.655997	1.001091
417.035670	1.000145
417.415283	1.000303
417.794834	1.000688
418.174324	1.001178
418.553753	1.000621
418.933121	1.000319
419.312428	1.001272
419.691674	1.001066
420.070859	1.000270
420.449983	1.000879
420.829045	0.999908
421.208047	1.000572
421.586988	1.000035
421.965867	1.000012
422.344686	0.999955
422.723444	0.999265
423.102141	0.999935
423.480777	0.999234
423.859352	0.999561
424.237866	1.000936
424.616319	1.000658
424.994712	1.000634
425.373044	1.000523
425.751314	1.000279
426.129524	1.000863
426.507673	0.999814
426.885762	1.000864
427.263789	0.999776
427.641756	1.000951
428.019662	1.000929
428.397508	1.001017
428.775292	0.999944
429.153016	0.999584
429.530679	1.000830
429.908282	1.001206
430.285824	1.000714
430.663305	1.000882
431.040726	1.001571
431.418086	1.000613
431.795385	1.000914
432.172624	1.000841
432.549802	1.000471
432.926920	1.000446
433.303977	1.000786
433.680974	1.001173
434.057910	1.000523
434.434786	0.999662
434.811601	1.000552
435.188355	1.000456
435.565050	1.000983
435.941683	0.999817
436.318257	0.999759
436.694770	1.000499
437.071222	1.001356
437.447614	1.000700
437.823946	1.000762
438.200218	1.001091
438.576429	0.999849
438.952580	1.000580
439.328670	1.000175
439.704700	0.999619
440.080670	1.001104
440.456580	1.000534
440.832429	1.000990
441.208218	1.000516
441.583947	1.000567
441.959616	0.999591
442.335224	1.001425
442.710773	1.001247
443.086261	1.001620
443.461689	1.000130
443.837057	1.000829
444.212365	1.001152
444.587612	1.001476
444.962800	1.000677
445.337927	1.001285
445.712995	1.000329
446.088002	1.000579
446.462949	1.000416
446.837837	1.002268
447.212664	1.000260
447.587431	1.001281
447.962139	1.000503
448.336786	0.999937
448.711374	1.000871
449.085901	1.000696
449.460369	1.001443
449.834776	1.000315
450.209124	1.000262
450.583412	1.000711
450.957640	1.000818
451.331808	1.000975
451.705917	1.000275
452.079965	1.001552
452.453954	1.001236
452.827883	1.001265
453.201752	1.000532
453.575562	1.000187
453.949311	1.000859
454.323001	1.000954
454.696632	1.001095
455.070202	1.000438
455.443713	1.000758
455.817164	1.000804
456.190556	1.000534
456.563888	1.001554
456.937160	1.001423
457.310373	1.000428
457.683526	1.000312
458.056619	1.000906
458.429653	1.000084
458.802628	1.001053
459.175542	1.001135
459.548398	1.000984
459.921194	1.001430
460.293930	1.001669
460.666607	1.001267
461.039224	1.000638
461.411782	1.000861
461.784280	1.000567
462.156719	1.001366
462.529099	1.001009
462.901419	1.000957
463.273680	1.000411
463.645882	1.000285
464.018024	1.001553
464.390106	0.999848
464.762130	1.000971
465.134094	1.000429
465.505999	1.000413
465.877845	1.000097
466.249631	0.999961
466.621358	1.000166
466.993026	1.000412
467.364634	1.001109
467.736184	1.001177
468.107674	1.001466
468.479105	1.000839
468.850477	1.001076
469.221790	1.001090
469.593043	1.000311
469.964238	1.000990
470.335373	1.000983
470.706449	1.000931
471.077467	1.001057
471.448425	1.000989
471.819324	1.000590
472.190164	1.000506
472.560945	1.000901
472.931667	1.001308
473.302330	1.000507
473.672934	1.001376
474.043479	1.001335
474.413965	1.000722
474.784393	1.000831
475.154761	0.999876
475.525070	1.000779
475.895321	1.001343
476.265513	1.000692
476.635645	1.001353
477.005719	1.000977
477.375734	1.000790
477.745691	1.000553
478.115588	1.001204
478.485427	1.001329
478.855207	1.001009
479.224928	1.000401
479.594591	1.001123
479.964194	1.000681
480.333739	1.000937
480.703226	1.000716
481.072653	1.000212
481.442022	1.001177
481.811333	1.000972
482.180584	1.000888
482.549777	1.000971
482.918912	1.000739
483.287988	1.000598
483.657005	1.000218
484.025964	1.000551
484.394864	1.000587
484.763706	1.000385
485.132489	1.000970
485.501213	1.001607
485.869879	1.000780
486.238487	1.000347
486.607036	1.001115
486.975527	1.000748
487.343959	1.001045
487.712333	1.001066
488.080648	0.999856
488.448905	1.001250
488.817104	1.000709
489.185244	1.000921
489.553326	1.001142
489.921350	1.001138
490.289315	1.000697
490.657222	1.000416
491.025070	1.000987
491.392861	1.000970
491.760593	1.000983
492.128267	1.001010
492.495883	1.000085
492.863440	1.001297
493.230939	1.001264
493.598380	1.001056
493.965763	1.000776
494.333088	1.000198
494.700354	1.000705
495.067563	1.000458
495.434713	1.001182
495.801805	1.000498
496.168839	1.000642
496.535815	1.001063
496.902733	1.000306
497.269593	1.000462
497.636395	1.000488
498.003139	1.000266
498.369825	1.001217
498.736453	1.000648
499.103023	1.000840
499.469535	1.001063
499.835989	1.001801
500.202385	1.000469
500.568723	1.000562
500.935003	1.000983
501.301226	1.000900
501.667390	1.000166
502.033497	1.001050
502.399546	1.000534
502.765537	1.000965
503.131470	1.000814
503.497345	1.000630
503.863163	1.000449
504.228923	1.000516
504.594625	1.000990
504.960269	1.000679
505.325856	1.001032
505.691385	1.000657
506.056856	1.000628
506.422270	1.000364
506.787625	1.000974
507.152924	1.001547
507.518164	1.000696
507.883347	0.999953
508.248472	1.000765
508.613540	1.000680
508.978550	1.000990
509.343503	1.001044
509.708398	1.001300
510.073236	1.000970
510.438016	1.000338
510.802738	1.000367
511.167403	1.000485
511.532010	1.000989
511.896561	1.000758
512.261053	1.001242
512.625488	1.000805
512.989866	1.000837
513.354186	1.000459
513.718449	1.000649
514.082655	1.000387
514.446803	1.000233
514.810894	1.001309
515.174927	1.000891
515.538904	1.001220
515.902822	1.000800
516.266684	1.001431
516.630488	1.000701
516.994235	1.001195
517.357925	1.001325
517.721558	1.001049
518.085133	1.000310
518.448651	1.000996
518.812112	1.001102
519.175516	1.001222
519.538863	1.000178
519.902152	1.000801
520.265385	1.000578
520.628560	1.000212
520.991678	1.000398
521.354739	1.001325
521.717743	1.001008
522.080690	1.001025
522.443580	1.000845
522.806413	1.000596
523.169189	1.001223
523.531908	1.000440
523.894569	1.000480
524.257174	1.001009
524.619722	1.001257
524.982213	1.000566
525.344647	1.000720
525.707025	1.000196
526.069345	1.000513
526.431608	1.001367
526.793815	1.000939
527.155964	1.001407
527.518057	1.001955
527.880093	1.000548
528.242072	1.000245
528.603995	1.000091
528.965860	1.001566
529.327669	1.001012
529.689421	1.000440
530.051117	1.000775
530.412755	1.000939
530.774337	1.000573
531.135862	1.001419
531.497331	1.000446
531.858743	1.001293
532.220098	1.000784
532.581396	1.001052
532.942638	1.001040
533.303824	1.000934
533.664953	1.000282
534.026025	1.001093
534.387040	1.001076
534.747999	1.001129
535.108902	1.000706
535.469748	1.001451
535.830537	1.001448
536.191270	1.000791
536.551947	1.000102
536.912567	1.000956
537.273131	1.001828
537.633638	1.000633
537.994089	1.001204
538.354483	1.001073
538.714821	1.001073
539.075103	1.001041
539.435328	1.000912
539.795497	1.001083
540.155609	1.000873
540.515665	1.001291
540.875665	1.001206
541.235609	1.001250
541.595496	1.000877
541.955328	1.000768
542.315102	1.001021
542.674821	1.001322
543.034483	1.001199
543.394090	1.000353
543.753640	1.000874
544.113134	1.000294
544.472571	1.001480
544.831953	1.000996
545.191278	1.001057
545.550548	1.000281
545.909761	1.000728
546.268918	1.001063
546.628019	1.002102
546.987064	1.000593
547.346053	1.000738
547.704986	1.000088
548.063863	1.000850
548.422684	1.000985
548.781449	1.000662
549.140158	1.001649
549.498811	1.000793
549.857408	1.000244
550.215949	0.999787
550.574434	1.000538
550.932864	1.001294
551.291237	1.001146
551.649555	1.001625
552.007817	1.001572
552.366022	1.001168
552.724173	1.001941
553.082267	1.000795
553.440305	1.000531
553.798288	1.000308
554.156215	1.001622
554.514086	1.000961
554.871902	1.001564
555.229661	1.000348
555.587365	1.000725
555.945014	1.001315
556.302606	1.000449
556.660143	1.001078
557.017625	1.001177
557.375050	1.000421
557.732421	1.000257
558.089735	1.000739
558.446994	1.000268
558.804197	1.000642
559.161345	1.000457
559.518437	1.000952
559.875474	1.000929
560.232455	1.001372
560.589381	1.001389
560.946251	1.001016
561.303065	1.001425
561.659825	1.000353
562.016528	1.001699
562.373177	1.000968
562.729770	1.001344
563.086307	1.000302
563.442789	1.001135
563.799216	1.000341
564.155587	1.001244
564.511904	1.001718
564.868164	1.000553
565.224370	1.000749
565.580520	1.001018
565.936615	1.001145
566.292654	1.000848
566.648638	1.001712
567.004567	1.000872
567.360441	1.001717
567.716260	1.000795
568.072023	1.000173
568.427732	1.001417
568.783385	1.001110
569.138982	1.000541
569.494525	1.001180
569.850013	1.000690
570.205445	1.001727
570.560823	1.000404
570.916145	1.000300
571.271412	1.000561
571.626625	1.000767
571.981782	1.000852
572.336884	1.001048
572.691931	1.001406
573.046923	1.000793
573.401860	1.001262
573.756743	1.001248
574.111570	1.001030
574.466342	1.001490
574.821059	1.001339
575.175722	1.001394
575.530330	1.000520
575.884882	1.001216
576.239380	1.001241
576.593823	1.001122
576.948211	1.000952
577.302544	1.000969
577.656823	1.001086
578.011047	1.000535
578.365216	1.001398
578.719330	1.000864
579.073389	1.000580
579.427394	1.001035
579.781344	1.001123
580.135239	1.000137
580.489080	1.001322
580.842866	1.001015
581.196597	1.000408
581.550273	1.000476
581.903895	1.001298
582.257463	1.000554
582.610975	1.000850
582.964434	1.001356
583.317837	1.001548
583.671186	1.002157
584.024481	1.001356
584.377721	1.000513
584.730906	1.001182
585.084037	1.001888
585.437113	1.001457
585.790135	1.001206
586.143103	1.001193
586.496016	1.001122
586.848874	1.000447
587.201679	1.000662
587.554428	1.000918
587.907124	1.000948
588.259765	1.001080
588.612352	1.001369
588.964884	1.001656
589.317362	1.000925
589.669786	1.001482
590.022155	1.000459
590.374470	1.000934
590.726731	1.000381
591.078937	1.001361
591.431090	1.001064
591.783188	1.000501
592.135232	1.001092
592.487222	1.000992
592.839157	1.001366
593.191038	1.001200
593.542866	1.000672
593.894639	0.999804
594.246358	1.001177
594.598022	1.001646
594.949633	1.001005
595.301190	1.001422
595.652692	1.000191
596.004141	1.000296
596.355535	1.000804
596.706876	1.001762
597.058162	1.000939
597.409395	1.000945
597.760573	1.000505
598.111698	1.000851
598.462768	1.000846
598.813785	0.999961
599.164748	1.000953
599.515657	1.000958
599.866511	1.000923
600.217312	1.001587
600.568060	1.001151
600.918753	1.001262
601.269392	1.001556
601.619978	1.001111
601.970510	1.000866
602.320988	1.000845
602.671412	1.000794
603.021783	1.000915
603.372100	1.001093
603.722363	1.001847
604.072572	1.000666
604.422728	1.000458
604.772830	1.000803
605.122878	1.001072
605.472872	1.001372
605.822813	1.000932
606.172701	1.001210
606.522534	1.000967
606.872314	1.001605
607.222041	1.000862
607.571714	1.000927
607.921333	1.000664
608.270899	1.000551
608.620411	1.001673
608.969870	1.001911
609.319276	1.000741
609.668627	1.001845
610.017926	1.000779
610.367171	1.001035
610.716362	1.001239
611.065500	1.000710
611.414585	1.001386
611.763616	1.000730
612.112594	1.000766
612.461518	1.000032
612.810389	1.001549
613.159207	1.000715
613.507971	1.000355
613.856682	1.001479
614.205340	0.999283
614.553945	1.000963
614.902496	1.000687
615.250994	1.001345
615.599439	1.000586
615.947830	1.000539
616.296169	1.000934
616.644454	1.001564
616.992686	1.001041
617.340864	1.000965
617.688990	1.000119
618.037063	1.000851
618.385082	1.000710
618.733048	1.000595
619.080961	1.000822
619.428821	1.001989
619.776628	1.000438
620.124382	1.001646
620.472083	1.001010
620.819731	1.001966
621.167326	1.001105
621.514868	1.000876
621.862357	1.001526
622.209793	1.000562
622.557176	1.000661
622.904506	1.000137
623.251783	1.001017
623.599007	1.001723
623.946179	1.000752
624.293297	1.000948
624.640363	1.001319
624.987376	1.000525
625.334336	1.000601
625.681243	1.000034
626.028097	1.001012
626.374899	1.000686
626.721647	1.001153
627.068343	1.000300
627.414987	1.001222
627.761577	1.000326
628.108115	1.000433
628.454600	1.001221
628.801032	1.001485
629.147412	1.001275
629.493739	1.001416
629.840014	1.000649
630.186236	1.000783
630.532405	1.001258
630.878521	0.999959
631.224585	1.000838
631.570597	1.000042
631.916556	1.000365
632.262462	1.000263
632.608316	1.000868
632.954117	1.000397
633.299866	1.000792
633.645562	1.000194
633.991206	1.000880
634.336797	1.001005
634.682336	1.002001
635.027823	1.000999
635.373257	1.001062
635.718639	1.000899
636.063968	1.000770
636.409245	1.000182
636.754470	1.001202
637.099642	1.000768
637.444762	1.001190
637.789829	1.000552
638.134845	1.000504
638.479808	1.000996
638.824719	1.000153
639.169577	1.000436
639.514383	1.001189
639.859137	1.001072
640.203839	1.000474
640.548489	1.000345
640.893086	1.000325
641.237632	1.001736
641.582125	1.001045
641.926566	1.001124
642.270955	1.001115
642.615292	1.000914
642.959576	1.000510
643.303809	1.000274
643.647990	1.000127
643.992118	1.001320
644.336195	0.999580
644.680219	1.001267
645.024192	1.000162
645.368112	1.000642
645.711981	0.999769
646.055797	1.000884
646.399562	1.000106
646.743274	1.001055
647.086935	1.000711
647.430544	0.999948
647.774101	0.999635
648.117606	1.001346
648.461059	1.001759
648.804460	0.999896
649.147810	1.001013
649.491108	1.000614
649.834354	1.000720
650.177548	1.000525
650.520690	1.000571
650.863781	0.999930
651.206820	1.000223
651.549807	1.001243
651.892742	1.001210
652.235626	1.000731
652.578458	1.001167
652.921238	1.002101
653.263967	1.000610
653.606644	1.000050
653.949269	1.000825
654.291843	0.999763
654.634365	1.000995
654.976836	1.000361
655.319255	1.000952
655.661622	1.001278
656.003938	0.999892
656.346203	0.999550
656.688416	1.000726
657.030577	1.000856
657.372687	1.000811
657.714746	1.000263
658.056753	1.000509
658.398708	0.999667
658.740612	1.001240
659.082465	0.999952
659.424266	1.000385
659.766016	1.000413
660.107715	1.000905
660.449362	0.999352
660.790958	1.000463
661.132503	1.000460
661.473996	0.999958
661.815438	1.001524
662.156829	1.000439
662.498168	1.000478
662.839456	0.999918
663.180693	1.001202
663.521879	1.000200
663.863013	1.000827
664.204097	1.000523
664.545129	1.000539
664.886110	1.000381
665.227040	1.000375
665.567918	0.999759
665.908746	1.000548
666.249522	0.999996
666.590248	0.999408
666.930922	1.000257
667.271545	0.999688
667.612118	1.000250
667.952639	1.000261
668.293109	1.000284
668.633528	0.999867
668.973896	1.000215
669.314213	1.000364
669.654480	1.000893
669.994695	0.999708
670.334859	0.999949
670.674973	0.999796
671.015035	0.999226
671.355047	1.000133
671.695008	0.999908
672.034918	0.999263
672.374777	1.000179
672.714585	0.999243
673.054342	1.000210
673.394049	0.999331
673.733705	0.999694
674.073310	1.000393
674.412864	1.000024
674.752368	0.999527
675.091820	1.000880
675.431223	1.000608
675.770574	0.999420
676.109875	1.000087
676.449125	0.999671
676.788324	1.000625
677.127473	1.000511
677.466571	1.001158
677.805619	1.000303
678.144616	1.000467
678.483562	1.001080
678.822458	1.000670
679.161303	1.000254
679.500098	1.000147
679.838842	1.000540
680.177535	0.999424
680.516179	0.999808
680.854771	0.999872
681.193314	0.999482
681.531805	0.999196
681.870247	0.999951
682.208638	1.000218
682.546978	0.999549
682.885268	1.000404
683.223508	0.999597
683.561697	0.999885
683.899836	1.000008
684.237925	0.999777
684.575963	0.999256
684.913951	0.999488
685.251889	0.999908
685.589776	0.999657
685.927614	0.999240
686.265401	0.999302
686.603137	0.999515
686.940824	0.999115
687.278460	1.000225
687.616046	0.999187
687.953582	0.999429
688.291068	0.999824
688.628504	1.000204
