Dividing Wavelength (nm)	Counts (n)	Blue Motor Position (mm): 45.500000	Red Motor Position (mm): 0.000000	
326.493990	0.998917
326.888308	0.998917
327.282561	0.998917
327.676750	0.999538
328.070874	1.000948
328.464933	1.000301
328.858929	1.001161
329.252859	1.000317
329.646726	0.998801
330.040528	0.998854
330.434265	0.999635
330.827938	0.998394
331.221547	1.000574
331.615091	1.000130
332.008571	1.001161
332.401986	0.999495
332.795338	0.999836
333.188625	1.000369
333.581847	0.998833
333.975006	0.999044
334.368100	1.000393
334.761129	0.998307
335.154095	1.000490
335.546996	0.999773
335.939833	0.999750
336.332606	1.000021
336.725315	0.998621
337.117960	1.000464
337.510540	0.998555
337.903056	1.000191
338.295508	1.000274
338.687896	1.000879
339.080220	1.000692
339.472480	1.000209
339.864676	1.000667
340.256807	0.999033
340.648875	0.999786
341.040879	0.999437
341.432818	1.000714
341.824694	0.999300
342.216506	1.001050
342.608253	0.999458
342.999937	0.999781
343.391557	0.999306
343.783113	1.001224
344.174605	1.000123
344.566033	0.999256
344.957397	1.000364
345.348697	1.001300
345.739934	1.001114
346.131106	1.000589
346.522215	0.998439
346.913260	1.000524
347.304241	0.999668
347.695159	0.999328
348.086012	0.998692
348.476802	0.999211
348.867528	0.999062
349.258191	0.999817
349.648789	0.999073
350.039324	1.000314
350.429796	0.999142
350.820203	0.998485
351.210548	1.000030
351.600828	0.999983
351.991045	0.999300
352.381198	1.001247
352.771288	0.999315
353.161314	0.999688
353.551276	0.999161
353.941175	0.998410
354.331010	1.001888
354.720782	0.999971
355.110490	1.000539
355.500135	0.999819
355.889717	0.999292
356.279235	0.999531
356.668689	1.000701
357.058080	0.999759
357.447408	0.998764
357.836672	0.999956
358.225873	0.999518
358.615010	0.997988
359.004084	0.998566
359.393095	0.999648
359.782043	0.999336
360.170927	0.999843
360.559748	1.000273
360.948505	0.999252
361.337199	0.998977
361.725830	1.001077
362.114398	1.000006
362.502903	0.999161
362.891344	0.998592
363.279722	0.999113
363.668037	0.999823
364.056289	0.999214
364.444478	1.000951
364.832603	0.999347
365.220665	0.999135
365.608665	0.999068
365.996601	0.999191
366.384474	0.998561
366.772284	0.999797
367.160031	0.998238
367.547715	0.998097
367.935336	0.997401
368.322893	0.996311
368.710388	0.995388
369.097820	0.994305
369.485189	0.991641
369.872495	0.988993
370.259738	0.988469
370.646918	0.984923
371.034035	0.982459
371.421090	0.979431
371.808081	0.975530
372.195010	0.972769
372.581875	0.967656
372.968678	0.964354
373.355418	0.961650
373.742096	0.954351
374.128710	0.951360
374.515262	0.948078
374.901751	0.942980
375.288177	0.938387
375.674540	0.934578
376.060841	0.930878
376.447079	0.926773
376.833254	0.922630
377.219367	0.922706
377.605417	0.913989
377.991404	0.914949
378.377329	0.912197
378.763191	0.911367
379.148991	0.907038
379.534727	0.904917
379.920402	0.901849
380.306013	0.902188
380.691563	0.898244
381.077049	0.898507
381.462474	0.899682
381.847835	0.896870
382.233134	0.899184
382.618371	0.904284
383.003545	0.899292
383.388657	0.902348
383.773706	0.904683
384.158693	0.907495
384.543618	0.911711
384.928480	0.911784
385.313280	0.913062
385.698017	0.917766
386.082692	0.918392
386.467305	0.923868
386.851856	0.929315
387.236344	0.930810
387.620770	0.934930
388.005133	0.939073
388.389435	0.942686
388.773674	0.945792
389.157851	0.950343
389.541965	0.953570
389.926018	0.958620
390.310008	0.960627
390.693936	0.963865
391.077802	0.966765
391.461606	0.969630
391.845348	0.972705
392.229027	0.973924
392.612645	0.977691
392.996200	0.980017
393.379694	0.980863
393.763125	0.983889
394.146494	0.985412
394.529801	0.987098
394.913047	0.987628
395.296230	0.991411
395.679351	0.992419
396.062410	0.993588
396.445408	0.994335
396.828343	0.996130
397.211217	0.995658
397.594028	0.996382
397.976778	0.997561
398.359466	0.998003
398.742092	0.998043
399.124656	0.997711
399.507158	0.998070
399.889598	0.999098
400.271977	0.999075
400.654294	0.999107
401.036549	0.999804
401.418742	1.000239
401.800874	0.999966
402.182944	0.999021
402.564952	1.000288
402.946898	1.000029
403.328783	1.000389
403.710606	0.999801
404.092367	1.000257
404.474067	1.001367
404.855705	1.001515
405.237282	0.999815
405.618797	1.000101
406.000250	1.000102
406.381642	0.999447
406.762972	1.001072
407.144240	1.000133
407.525447	0.999004
407.906593	0.998824
408.287677	1.000156
408.668700	1.000820
409.049661	1.000485
409.430560	1.000069
409.811399	0.999882
410.192176	1.000420
410.572891	1.001035
410.953545	0.999304
411.334138	0.999973
411.714669	1.000421
412.095139	1.000457
412.475547	1.001189
412.855894	1.000043
413.236180	0.999975
413.616405	0.999602
413.996568	1.000771
414.376670	1.000145
414.756711	0.999731
415.136691	0.999659
415.516609	0.999588
415.896466	1.000419
416.276262	0.999387
416.655997	1.000738
417.035670	1.000104
417.415283	1.000176
417.794834	1.000654
418.174324	1.000669
418.553753	1.000199
418.933121	1.000774
419.312428	1.001619
419.691674	1.000947
420.070859	1.001626
420.449983	1.000645
420.829045	0.999907
421.208047	1.000378
421.586988	0.999866
421.965867	0.999337
422.344686	1.000665
422.723444	1.000362
423.102141	1.000712
423.480777	1.000257
423.859352	0.999982
424.237866	1.000714
424.616319	1.001366
424.994712	1.000556
425.373044	1.001359
425.751314	1.000546
426.129524	1.001311
426.507673	0.999741
426.885762	1.000266
427.263789	1.001211
427.641756	0.999743
428.019662	1.001076
428.397508	1.000799
428.775292	1.000132
429.153016	1.000014
429.530679	1.000381
429.908282	1.001089
430.285824	1.000953
430.663305	1.000577
431.040726	1.000794
431.418086	1.000884
431.795385	1.001531
432.172624	1.001723
432.549802	1.000777
432.926920	1.000632
433.303977	1.000253
433.680974	1.001520
434.057910	1.000482
434.434786	1.000870
434.811601	1.000424
435.188355	1.000587
435.565050	1.001048
435.941683	1.000676
436.318257	0.999669
436.694770	1.000695
437.071222	1.001018
437.447614	1.001012
437.823946	1.000779
438.200218	1.000698
438.576429	1.000745
438.952580	1.001312
439.328670	0.999555
439.704700	1.000583
440.080670	1.002048
440.456580	1.001255
440.832429	1.000988
441.208218	1.001266
441.583947	1.000494
441.959616	1.000206
442.335224	1.001429
442.710773	1.001580
443.086261	1.000954
443.461689	1.000137
443.837057	1.000550
444.212365	1.001599
444.587612	1.001403
444.962800	1.001123
445.337927	1.001484
445.712995	1.000962
446.088002	1.000674
446.462949	1.000837
446.837837	1.002297
447.212664	1.000998
447.587431	1.001384
447.962139	1.000433
448.336786	0.999823
448.711374	1.000391
449.085901	1.001476
449.460369	1.001281
449.834776	1.000362
450.209124	1.001191
450.583412	1.001395
450.957640	1.001062
451.331808	1.001323
451.705917	1.001261
452.079965	1.001641
452.453954	1.002102
452.827883	1.001010
453.201752	1.001089
453.575562	1.000932
453.949311	1.001386
454.323001	1.000356
454.696632	1.001617
455.070202	1.000408
455.443713	1.000579
455.817164	1.000862
456.190556	1.000353
456.563888	1.001168
456.937160	1.001174
457.310373	1.000583
457.683526	1.000474
458.056619	1.001478
458.429653	1.000735
458.802628	1.000657
459.175542	1.001507
459.548398	1.000721
459.921194	1.001381
460.293930	1.001760
460.666607	1.000938
461.039224	1.000968
461.411782	1.000873
461.784280	1.000802
462.156719	1.001589
462.529099	1.001573
462.901419	1.001341
463.273680	1.000559
463.645882	1.000487
464.018024	1.000923
464.390106	1.000166
464.762130	1.000767
465.134094	1.000477
465.505999	1.000529
465.877845	1.000372
466.249631	1.000734
466.621358	1.000058
466.993026	1.000899
467.364634	1.000808
467.736184	1.000940
468.107674	1.000648
468.479105	1.000730
468.850477	1.001320
469.221790	1.001845
469.593043	1.001528
469.964238	1.001323
470.335373	1.000247
470.706449	1.001323
471.077467	1.001632
471.448425	1.000996
471.819324	1.001042
472.190164	1.000509
472.560945	1.000610
472.931667	1.001310
473.302330	1.000561
473.672934	1.001028
474.043479	1.000821
474.413965	1.001077
474.784393	1.001192
475.154761	1.000947
475.525070	1.000790
475.895321	1.001446
476.265513	1.001267
476.635645	1.001491
477.005719	1.001021
477.375734	1.000586
477.745691	1.000299
478.115588	1.000380
478.485427	1.000539
478.855207	1.001053
479.224928	1.000646
479.594591	1.001102
479.964194	1.001138
480.333739	1.001422
480.703226	1.000767
481.072653	1.000591
481.442022	1.000902
481.811333	1.000629
482.180584	1.000658
482.549777	1.000774
482.918912	1.001172
483.287988	1.001077
483.657005	1.000459
484.025964	1.000699
484.394864	1.000880
484.763706	1.000619
485.132489	1.000764
485.501213	1.001093
485.869879	1.001023
486.238487	1.000701
486.607036	1.002224
486.975527	1.000892
487.343959	1.000604
487.712333	1.001245
488.080648	1.000972
488.448905	1.001272
488.817104	1.001096
489.185244	1.000873
489.553326	1.001841
489.921350	1.001220
490.289315	1.001431
490.657222	1.000350
491.025070	1.001395
491.392861	1.000973
491.760593	1.000978
492.128267	1.001209
492.495883	0.999920
492.863440	1.000678
493.230939	1.000636
493.598380	1.001571
493.965763	1.001438
494.333088	1.000230
494.700354	1.000669
495.067563	1.000717
495.434713	1.001393
495.801805	1.000224
496.168839	1.001119
496.535815	1.000537
496.902733	1.000750
497.269593	1.000978
497.636395	1.000253
498.003139	1.000268
498.369825	1.001622
498.736453	1.001018
499.103023	1.000851
499.469535	1.000938
499.835989	1.001259
500.202385	1.000871
500.568723	1.000326
500.935003	1.001321
501.301226	1.001795
501.667390	1.000766
502.033497	1.001117
502.399546	1.001041
502.765537	1.000936
503.131470	1.000728
503.497345	1.000872
503.863163	1.001078
504.228923	1.000191
504.594625	1.000670
504.960269	1.001297
505.325856	1.002082
505.691385	1.001193
506.056856	1.000733
506.422270	1.000674
506.787625	1.001354
507.152924	1.001711
507.518164	1.000781
507.883347	1.000174
508.248472	1.001014
508.613540	1.000882
508.978550	1.001728
509.343503	1.000696
509.708398	1.002406
510.073236	1.001315
510.438016	0.999953
510.802738	1.000415
511.167403	1.000832
511.532010	1.001733
511.896561	1.001215
512.261053	1.000587
512.625488	1.000828
512.989866	1.001240
513.354186	1.000805
513.718449	1.000936
514.082655	1.001083
514.446803	1.001096
514.810894	1.001882
515.174927	1.001088
515.538904	1.000869
515.902822	1.000581
516.266684	1.001361
516.630488	1.001577
516.994235	1.001388
517.357925	1.001359
517.721558	1.001204
518.085133	1.001121
518.448651	1.000833
518.812112	1.000936
519.175516	1.001306
519.538863	1.000895
519.902152	1.001427
520.265385	1.000922
520.628560	1.000330
520.991678	1.000797
521.354739	1.001569
521.717743	1.001544
522.080690	1.000632
522.443580	1.001585
522.806413	1.000276
523.169189	1.001615
523.531908	1.001130
523.894569	1.000613
524.257174	1.001785
524.619722	1.000827
524.982213	1.000818
525.344647	1.000791
525.707025	1.000978
526.069345	1.000709
526.431608	1.001040
526.793815	1.001068
527.155964	1.001426
527.518057	1.001211
527.880093	1.001343
528.242072	1.001234
528.603995	1.001161
528.965860	1.001486
529.327669	1.001183
529.689421	1.000361
530.051117	1.001428
530.412755	1.001084
530.774337	1.001108
531.135862	1.001480
531.497331	1.000997
531.858743	1.001303
532.220098	1.000703
532.581396	1.001425
532.942638	1.001520
533.303824	1.001822
533.664953	1.000647
534.026025	1.001547
534.387040	1.001247
534.747999	1.000484
535.108902	1.000533
535.469748	1.001483
535.830537	1.000975
536.191270	1.000402
536.551947	1.000429
536.912567	1.000880
537.273131	1.001507
537.633638	1.001084
537.994089	1.001376
538.354483	1.000607
538.714821	1.001205
539.075103	1.000415
539.435328	1.001583
539.795497	1.001024
540.155609	1.000842
540.515665	1.001466
540.875665	1.000959
541.235609	1.001640
541.595496	1.000507
541.955328	1.000728
542.315102	1.001114
542.674821	1.000965
543.034483	1.001170
543.394090	1.000338
543.753640	1.001155
544.113134	1.000552
544.472571	1.001751
544.831953	1.000800
545.191278	1.000649
545.550548	1.000356
545.909761	1.000676
546.268918	1.001423
546.628019	1.001406
546.987064	1.000128
547.346053	0.999949
547.704986	1.000370
548.063863	1.000602
548.422684	1.000958
548.781449	1.001058
549.140158	1.001016
549.498811	1.000245
549.857408	1.000043
550.215949	1.000139
550.574434	1.000609
550.932864	1.000714
551.291237	1.000561
551.649555	1.001419
552.007817	1.000551
552.366022	1.001439
552.724173	1.001776
553.082267	1.001097
553.440305	1.000979
553.798288	1.000911
554.156215	1.000684
554.514086	1.001452
554.871902	1.001040
555.229661	1.000031
555.587365	1.001183
555.945014	1.001323
556.302606	1.000375
556.660143	1.000842
557.017625	1.000958
557.375050	1.000353
557.732421	1.000321
558.089735	1.000430
558.446994	1.000377
558.804197	1.000385
559.161345	1.000812
559.518437	1.000450
559.875474	1.001100
560.232455	1.001003
560.589381	1.001431
560.946251	1.000818
561.303065	1.001092
561.659825	1.000282
562.016528	1.000740
562.373177	1.000154
562.729770	1.000667
563.086307	1.000451
563.442789	1.001114
563.799216	0.999625
564.155587	1.000674
564.511904	1.000918
564.868164	0.999738
565.224370	1.000414
565.580520	1.000519
565.936615	1.000887
566.292654	1.000486
566.648638	1.001545
567.004567	1.001230
567.360441	1.000907
567.716260	1.000709
568.072023	1.000337
568.427732	1.001418
568.783385	1.000437
569.138982	1.001527
569.494525	1.000643
569.850013	1.000477
570.205445	1.000841
570.560823	1.000795
570.916145	1.000040
571.271412	1.000606
571.626625	1.001353
571.981782	1.000743
572.336884	1.001210
572.691931	1.000208
573.046923	1.001187
573.401860	1.000291
573.756743	1.001331
574.111570	1.000780
574.466342	1.001489
574.821059	1.000160
575.175722	1.000721
575.530330	1.000338
575.884882	1.000063
576.239380	1.000144
576.593823	1.000729
576.948211	1.000978
577.302544	1.000955
577.656823	1.000389
578.011047	1.000082
578.365216	1.001115
578.719330	1.000261
579.073389	0.999851
579.427394	1.000363
579.781344	1.000723
580.135239	0.999479
580.489080	1.001124
580.842866	1.000834
581.196597	1.000517
581.550273	0.999652
581.903895	1.000582
582.257463	1.000102
582.610975	0.999952
582.964434	1.000663
583.317837	1.001197
583.671186	1.000877
584.024481	1.000244
584.377721	0.999933
584.730906	1.000383
585.084037	1.001753
585.437113	1.000928
585.790135	1.000466
586.143103	1.000507
586.496016	1.000846
586.848874	1.000445
587.201679	1.000821
587.554428	1.000402
587.907124	1.001325
588.259765	1.001148
588.612352	1.000486
588.964884	1.001360
589.317362	1.000442
589.669786	1.000137
590.022155	1.000113
590.374470	1.000520
590.726731	1.000132
591.078937	1.000307
591.431090	1.000121
591.783188	0.999654
592.135232	1.001498
592.487222	0.999976
592.839157	0.999927
593.191038	1.000747
593.542866	1.001089
593.894639	0.999609
594.246358	1.000705
594.598022	1.000873
594.949633	1.000492
595.301190	1.000581
595.652692	1.000295
596.004141	1.000075
596.355535	0.999977
596.706876	1.000293
597.058162	1.000237
597.409395	0.999926
597.760573	1.000746
598.111698	1.000404
598.462768	0.999496
598.813785	0.999674
599.164748	0.999659
599.515657	0.999862
599.866511	1.000489
600.217312	1.000740
600.568060	0.999815
600.918753	1.000896
601.269392	1.000662
601.619978	1.000278
601.970510	1.000523
602.320988	1.000106
602.671412	1.000236
603.021783	1.000335
603.372100	1.000194
603.722363	1.000331
604.072572	1.000193
604.422728	1.000382
604.772830	0.999887
605.122878	1.000874
605.472872	1.000908
605.822813	0.999572
606.172701	1.000211
606.522534	1.000364
606.872314	1.000601
607.222041	1.000441
607.571714	1.000223
607.921333	0.999280
608.270899	1.000456
608.620411	1.000238
608.969870	1.001150
609.319276	1.000472
609.668627	1.000324
610.017926	0.999731
610.367171	0.999715
610.716362	1.000187
611.065500	1.000051
611.414585	1.000176
611.763616	0.999705
612.112594	0.999972
612.461518	0.999087
612.810389	0.999590
613.159207	0.999774
613.507971	0.998998
613.856682	1.000600
614.205340	0.999247
614.553945	1.000226
614.902496	0.999721
615.250994	1.000502
615.599439	1.000430
615.947830	0.999385
616.296169	0.999765
616.644454	0.999856
616.992686	1.000145
617.340864	1.000503
617.688990	0.999922
618.037063	1.000206
618.385082	0.999166
618.733048	0.998809
619.080961	1.000287
619.428821	1.000655
619.776628	0.999747
620.124382	1.000774
620.472083	1.000596
620.819731	1.000564
621.167326	1.000175
621.514868	1.000662
621.862357	0.999831
622.209793	1.000340
622.557176	0.999605
622.904506	1.000089
623.251783	1.000005
623.599007	1.000689
623.946179	0.999445
624.293297	1.000611
624.640363	1.000658
624.987376	0.999854
625.334336	1.000051
625.681243	1.000149
626.028097	1.000677
626.374899	1.000630
626.721647	1.000800
627.068343	1.000236
627.414987	1.000134
627.761577	0.999964
628.108115	0.999788
628.454600	1.000275
628.801032	1.001023
629.147412	1.000785
629.493739	1.001280
629.840014	1.000219
630.186236	0.999429
630.532405	1.000479
630.878521	0.999180
631.224585	0.999938
631.570597	0.999477
631.916556	1.000236
632.262462	0.999437
632.608316	0.999340
632.954117	0.999371
633.299866	0.999613
633.645562	0.999584
633.991206	1.000780
634.336797	0.999983
634.682336	1.000647
635.027823	1.000004
635.373257	1.000174
635.718639	1.000201
636.063968	1.000136
636.409245	0.999704
636.754470	0.999988
637.099642	0.999882
637.444762	1.000655
637.789829	0.999692
638.134845	0.999676
638.479808	0.999456
638.824719	0.999783
639.169577	0.999885
639.514383	1.000112
639.859137	1.000082
640.203839	0.999802
640.548489	0.998879
640.893086	1.000183
641.237632	1.000239
641.582125	1.000494
641.926566	1.001584
642.270955	1.000333
642.615292	0.999098
642.959576	0.999904
643.303809	1.000486
643.647990	0.999523
643.992118	1.000740
644.336195	0.999863
644.680219	0.999795
645.024192	0.999627
645.368112	0.999148
645.711981	0.999597
646.055797	1.000049
646.399562	0.999213
646.743274	1.000062
647.086935	0.998701
647.430544	0.999592
647.774101	0.999477
648.117606	1.000125
648.461059	1.000931
648.804460	0.999853
649.147810	0.998865
649.491108	0.999881
649.834354	0.999914
650.177548	0.999807
650.520690	0.999124
650.863781	0.999049
651.206820	0.999968
651.549807	0.999768
651.892742	0.999845
652.235626	0.999520
652.578458	1.000159
652.921238	1.000799
653.263967	1.000005
653.606644	0.999775
653.949269	1.000902
654.291843	0.999601
654.634365	1.000010
654.976836	0.999608
655.319255	1.000409
655.661622	1.000092
656.003938	0.999358
656.346203	0.999002
656.688416	1.000187
657.030577	0.999057
657.372687	0.999935
657.714746	0.998862
658.056753	0.999786
658.398708	0.998201
658.740612	1.000695
659.082465	0.999898
659.424266	0.999096
659.766016	0.998706
660.107715	0.999899
660.449362	0.999549
660.790958	0.999666
661.132503	0.999837
661.473996	0.999609
661.815438	1.000757
662.156829	1.001146
662.498168	1.000209
662.839456	0.998577
663.180693	1.000331
663.521879	1.000042
663.863013	0.999762
664.204097	0.999489
664.545129	0.999504
664.886110	1.000128
665.227040	1.000102
665.567918	0.998786
665.908746	0.998442
666.249522	0.999248
666.590248	0.999345
666.930922	0.999744
667.271545	0.999724
667.612118	0.999686
667.952639	1.000072
668.293109	0.999807
668.633528	0.999284
668.973896	1.000136
669.314213	0.998951
669.654480	0.999400
669.994695	0.999243
670.334859	0.999720
670.674973	0.999142
671.015035	0.998803
671.355047	0.999187
671.695008	0.998620
672.034918	0.999858
672.374777	0.999973
672.714585	0.999578
673.054342	0.999882
673.394049	0.999632
673.733705	0.999467
674.073310	0.999251
674.412864	0.999334
674.752368	0.999390
675.091820	1.000852
675.431223	1.000176
675.770574	0.999364
676.109875	1.000054
676.449125	0.999743
676.788324	0.999217
677.127473	1.000664
677.466571	0.999914
677.805619	0.999901
678.144616	1.000343
678.483562	1.000306
678.822458	0.999853
679.161303	0.999090
679.500098	0.999734
679.838842	0.999583
680.177535	0.999430
680.516179	0.999290
680.854771	0.998954
681.193314	0.999412
681.531805	0.999926
681.870247	0.999442
682.208638	1.000059
682.546978	0.999480
682.885268	0.999859
683.223508	0.998977
683.561697	0.999026
683.899836	1.000109
684.237925	0.999054
684.575963	0.999324
684.913951	0.999634
685.251889	0.999100
685.589776	0.999357
685.927614	0.999578
686.265401	0.999398
686.603137	0.999404
686.940824	0.999373
687.278460	1.000654
687.616046	0.999490
687.953582	0.999581
688.291068	1.000271
688.628504	0.998880
