Dividing Wavelength (nm)	Counts (n)	Blue Motor Position (mm): 47.800000	Red Motor Position (mm): 0.000000	
326.493990	0.999967
326.888308	0.999967
327.282561	0.999967
327.676750	1.001392
328.070874	1.000899
328.464933	1.001273
328.858929	1.000688
329.252859	1.000180
329.646726	0.999975
330.040528	1.000436
330.434265	1.000192
330.827938	0.999008
331.221547	1.001420
331.615091	1.000495
332.008571	1.002600
332.401986	0.999141
332.795338	0.999585
333.188625	1.000542
333.581847	0.999853
333.975006	1.000320
334.368100	1.000548
334.761129	1.000398
335.154095	1.001065
335.546996	1.000491
335.939833	0.999527
336.332606	1.000479
336.725315	0.999611
337.117960	1.000017
337.510540	0.999470
337.903056	1.000319
338.295508	1.001458
338.687896	1.001232
339.080220	1.000892
339.472480	1.001564
339.864676	1.002094
340.256807	0.999463
340.648875	1.000883
341.040879	1.001328
341.432818	1.001377
341.824694	1.000673
342.216506	1.001424
342.608253	1.000575
342.999937	1.000033
343.391557	1.000556
343.783113	1.002177
344.174605	1.000768
344.566033	0.999683
344.957397	1.000575
345.348697	1.000937
345.739934	1.000600
346.131106	1.000532
346.522215	0.998609
346.913260	1.000532
347.304241	0.999377
347.695159	1.001362
348.086012	1.000041
348.476802	1.001229
348.867528	1.000443
349.258191	1.000975
349.648789	1.000365
350.039324	1.001277
350.429796	0.999211
350.820203	1.000140
351.210548	1.000309
351.600828	1.000160
351.991045	0.999796
352.381198	1.000955
352.771288	1.000475
353.161314	1.001395
353.551276	1.000348
353.941175	0.998960
354.331010	1.000594
354.720782	0.999980
355.110490	1.000112
355.500135	1.000409
355.889717	0.999361
356.279235	0.999921
356.668689	1.000226
357.058080	1.000369
357.447408	0.998883
357.836672	1.000864
358.225873	1.000580
358.615010	1.000800
359.004084	0.999345
359.393095	1.000089
359.782043	1.000073
360.170927	1.000041
360.559748	1.000760
360.948505	0.999830
361.337199	1.000064
361.725830	1.001046
362.114398	1.000588
362.502903	1.000168
362.891344	1.000241
363.279722	1.000668
363.668037	1.001096
364.056289	0.999607
364.444478	1.002192
364.832603	1.000559
365.220665	1.000605
365.608665	1.000467
365.996601	1.000180
366.384474	0.998706
366.772284	0.999634
367.160031	0.998692
367.547715	0.999609
367.935336	0.999221
368.322893	0.997709
368.710388	0.997725
369.097820	0.994788
369.485189	0.993753
369.872495	0.992002
370.259738	0.991004
370.646918	0.988249
371.034035	0.987586
371.421090	0.986492
371.808081	0.983514
372.195010	0.983483
372.581875	0.979960
372.968678	0.978383
373.355418	0.978127
373.742096	0.973308
374.128710	0.973738
374.515262	0.973720
374.901751	0.972172
375.288177	0.970126
375.674540	0.970412
376.060841	0.969715
376.447079	0.967904
376.833254	0.968079
377.219367	0.967668
377.605417	0.966073
377.991404	0.967009
378.377329	0.967400
378.763191	0.966241
379.148991	0.966941
379.534727	0.967262
379.920402	0.966760
380.306013	0.967917
380.691563	0.969348
381.077049	0.969977
381.462474	0.970281
381.847835	0.970915
382.233134	0.973364
382.618371	0.975650
383.003545	0.975388
383.388657	0.976904
383.773706	0.978044
384.158693	0.979805
384.543618	0.982726
384.928480	0.982894
385.313280	0.984726
385.698017	0.984668
386.082692	0.986925
386.467305	0.988269
386.851856	0.990620
387.236344	0.991014
387.620770	0.992844
388.005133	0.993344
388.389435	0.994069
388.773674	0.995161
389.157851	0.995691
389.541965	0.997450
389.926018	0.996966
390.310008	0.996587
390.693936	0.998465
391.077802	0.999661
391.461606	0.998075
391.845348	0.999425
392.229027	0.999172
392.612645	1.000124
392.996200	1.000291
393.379694	0.999615
393.763125	1.000544
394.146494	0.999930
394.529801	1.000421
394.913047	1.000136
395.296230	1.000626
395.679351	1.000467
396.062410	1.000719
396.445408	1.000319
396.828343	1.000818
397.211217	1.000750
397.594028	0.999541
397.976778	1.001611
398.359466	1.000613
398.742092	1.001777
399.124656	1.000456
399.507158	0.999909
399.889598	1.002151
400.271977	1.000888
400.654294	1.000320
401.036549	1.000361
401.418742	1.001125
401.800874	1.000778
402.182944	1.000592
402.564952	0.999853
402.946898	1.001294
403.328783	1.001288
403.710606	1.000713
404.092367	1.001010
404.474067	1.001646
404.855705	1.001554
405.237282	1.000223
405.618797	1.001277
406.000250	1.001125
406.381642	1.000507
406.762972	1.001771
407.144240	1.001302
407.525447	0.999743
407.906593	1.000495
408.287677	1.000456
408.668700	1.001070
409.049661	1.000968
409.430560	1.000924
409.811399	1.000278
410.192176	1.000704
410.572891	1.001695
410.953545	1.000893
411.334138	1.001228
411.714669	1.000851
412.095139	1.000922
412.475547	1.001308
412.855894	1.001103
413.236180	1.001495
413.616405	1.000576
413.996568	1.001313
414.376670	1.000801
414.756711	1.000751
415.136691	1.000964
415.516609	1.000260
415.896466	1.000730
416.276262	1.000311
416.655997	1.001652
417.035670	1.001379
417.415283	1.001329
417.794834	1.000887
418.174324	1.001742
418.553753	1.000644
418.933121	1.000889
419.312428	1.001634
419.691674	1.001115
420.070859	1.001323
420.449983	1.001424
420.829045	1.000139
421.208047	1.001192
421.586988	1.000284
421.965867	1.000105
422.344686	1.001541
422.723444	1.000469
423.102141	1.000904
423.480777	0.999644
423.859352	1.001171
424.237866	1.000653
424.616319	1.001832
424.994712	1.001924
425.373044	1.000845
425.751314	1.001235
426.129524	1.001557
426.507673	1.000307
426.885762	1.001178
427.263789	1.001176
427.641756	1.000593
428.019662	1.001146
428.397508	1.001315
428.775292	1.000882
429.153016	1.000942
429.530679	1.001411
429.908282	1.001860
430.285824	1.000788
430.663305	1.001605
431.040726	1.002079
431.418086	1.001171
431.795385	1.001071
432.172624	1.001970
432.549802	1.001267
432.926920	1.001442
433.303977	1.001128
433.680974	1.002155
434.057910	1.001731
434.434786	1.000425
434.811601	1.001527
435.188355	1.001584
435.565050	1.001893
435.941683	1.000947
436.318257	1.000520
436.694770	1.001314
437.071222	1.002014
437.447614	1.001427
437.823946	1.001110
438.200218	1.001696
438.576429	1.000962
438.952580	1.001224
439.328670	1.001222
439.704700	1.000853
440.080670	1.000858
440.456580	1.001392
440.832429	1.001180
441.208218	1.000996
441.583947	1.000642
441.959616	1.000308
442.335224	1.002042
442.710773	1.001612
443.086261	1.002323
443.461689	1.000870
443.837057	1.000305
444.212365	1.001231
444.587612	1.002173
444.962800	1.001156
445.337927	1.001750
445.712995	1.001683
446.088002	1.001177
446.462949	1.001130
446.837837	1.002060
447.212664	1.001341
447.587431	1.001569
447.962139	1.000987
448.336786	1.000796
448.711374	1.001306
449.085901	1.001414
449.460369	1.001972
449.834776	1.000612
450.209124	1.001860
450.583412	1.001328
450.957640	1.000534
451.331808	1.002540
451.705917	1.000854
452.079965	1.001246
452.453954	1.002168
452.827883	1.002016
453.201752	1.001568
453.575562	1.001253
453.949311	1.001648
454.323001	1.001193
454.696632	1.001008
455.070202	1.001126
455.443713	1.001036
455.817164	1.001165
456.190556	1.001707
456.563888	1.002055
456.937160	1.001738
457.310373	1.001417
457.683526	1.001070
458.056619	1.001963
458.429653	1.001074
458.802628	1.000706
459.175542	1.001756
459.548398	1.001635
459.921194	1.001649
460.293930	1.001965
460.666607	1.001888
461.039224	1.000803
461.411782	1.001059
461.784280	1.000900
462.156719	1.001840
462.529099	1.001768
462.901419	1.001287
463.273680	1.000435
463.645882	1.001580
464.018024	1.002638
464.390106	1.001067
464.762130	1.001711
465.134094	1.001765
465.505999	1.001489
465.877845	1.001748
466.249631	1.000879
466.621358	1.000371
466.993026	1.001576
467.364634	1.001861
467.736184	1.001837
468.107674	1.001385
468.479105	1.001436
468.850477	1.001582
469.221790	1.001783
469.593043	1.001503
469.964238	1.001283
470.335373	1.001172
470.706449	1.001867
471.077467	1.000824
471.448425	1.001984
471.819324	1.001527
472.190164	1.001603
472.560945	1.001490
472.931667	1.001353
473.302330	1.000954
473.672934	1.002478
474.043479	1.001565
474.413965	1.002341
474.784393	1.001740
475.154761	1.001322
475.525070	1.001588
475.895321	1.002054
476.265513	1.002046
476.635645	1.002204
477.005719	1.001578
477.375734	1.001379
477.745691	1.001251
478.115588	1.001158
478.485427	1.001770
478.855207	1.002248
479.224928	1.001686
479.594591	1.001966
479.964194	1.001369
480.333739	1.001197
480.703226	1.001788
481.072653	1.000904
481.442022	1.001690
481.811333	1.001540
482.180584	1.001629
482.549777	1.001867
482.918912	1.001481
483.287988	1.001932
483.657005	1.001360
484.025964	1.001846
484.394864	1.000973
484.763706	1.001609
485.132489	1.001904
485.501213	1.001859
485.869879	1.001216
486.238487	1.000559
486.607036	1.001766
486.975527	1.002037
487.343959	1.001169
487.712333	1.001328
488.080648	1.000643
488.448905	1.001865
488.817104	1.001263
489.185244	1.001403
489.553326	1.000986
489.921350	1.001873
490.289315	1.001344
490.657222	1.000993
491.025070	1.002029
491.392861	1.001584
491.760593	1.001253
492.128267	1.001236
492.495883	1.000845
492.863440	1.002010
493.230939	1.001849
493.598380	1.002406
493.965763	1.001306
494.333088	1.000793
494.700354	1.000790
495.067563	1.001322
495.434713	1.001039
495.801805	1.001495
496.168839	1.001103
496.535815	1.001642
496.902733	1.001287
497.269593	1.001397
497.636395	1.000580
498.003139	1.001138
498.369825	1.001910
498.736453	1.001785
499.103023	1.001999
499.469535	1.001490
499.835989	1.001293
500.202385	1.001470
500.568723	1.001285
500.935003	1.001434
501.301226	1.001313
501.667390	1.001535
502.033497	1.001636
502.399546	1.001323
502.765537	1.001360
503.131470	1.001296
503.497345	1.001430
503.863163	1.001499
504.228923	1.001270
504.594625	1.001541
504.960269	1.001476
505.325856	1.002223
505.691385	1.001847
506.056856	1.001475
506.422270	1.001563
506.787625	1.001032
507.152924	1.001585
507.518164	1.001898
507.883347	1.000840
508.248472	1.001100
508.613540	1.000958
508.978550	1.001951
509.343503	1.001567
509.708398	1.002251
510.073236	1.001252
510.438016	1.000429
510.802738	1.001223
511.167403	1.001277
511.532010	1.001604
511.896561	1.002058
512.261053	1.001337
512.625488	1.001404
512.989866	1.001588
513.354186	1.000866
513.718449	1.002034
514.082655	1.001695
514.446803	1.001160
514.810894	1.002279
515.174927	1.001577
515.538904	1.001344
515.902822	1.001293
516.266684	1.001217
516.630488	1.001356
516.994235	1.001664
517.357925	1.001453
517.721558	1.001462
518.085133	1.000979
518.448651	1.001277
518.812112	1.001948
519.175516	1.001313
519.538863	1.000604
519.902152	1.001086
520.265385	1.001264
520.628560	1.001716
520.991678	1.001249
521.354739	1.002634
521.717743	1.001618
522.080690	1.000975
522.443580	1.002076
522.806413	1.000634
523.169189	1.002079
523.531908	1.000699
523.894569	1.001697
524.257174	1.001650
524.619722	1.001164
524.982213	1.001573
525.344647	1.001291
525.707025	1.001197
526.069345	1.000780
526.431608	1.001654
526.793815	1.001430
527.155964	1.002183
527.518057	1.001890
527.880093	1.001755
528.242072	1.001525
528.603995	1.001999
528.965860	1.001456
529.327669	1.001674
529.689421	1.000442
530.051117	1.001742
530.412755	1.001887
530.774337	1.001110
531.135862	1.001714
531.497331	1.001188
531.858743	1.001831
532.220098	1.001206
532.581396	1.001957
532.942638	1.001456
533.303824	1.001292
533.664953	1.001066
534.026025	1.001989
534.387040	1.001765
534.747999	1.001184
535.108902	1.001387
535.469748	1.002350
535.830537	1.002401
536.191270	1.001761
536.551947	1.001668
536.912567	1.001334
537.273131	1.002388
537.633638	1.001142
537.994089	1.001450
538.354483	1.001417
538.714821	1.001376
539.075103	1.001031
539.435328	1.001734
539.795497	1.002396
540.155609	1.001130
540.515665	1.002019
540.875665	1.001792
541.235609	1.002063
541.595496	1.000845
541.955328	1.001827
542.315102	1.002017
542.674821	1.001923
543.034483	1.002536
543.394090	1.000946
543.753640	1.001104
544.113134	1.001127
544.472571	1.001674
544.831953	1.001192
545.191278	1.001706
545.550548	1.000693
545.909761	1.001639
546.268918	1.002293
546.628019	1.001673
546.987064	1.002108
547.346053	1.001005
547.704986	1.001545
548.063863	1.001259
548.422684	1.001880
548.781449	1.001731
549.140158	1.001647
549.498811	1.000878
549.857408	1.000760
550.215949	1.001051
550.574434	1.001057
550.932864	1.001857
551.291237	1.001127
551.649555	1.001872
552.007817	1.001999
552.366022	1.002282
552.724173	1.001628
553.082267	1.001701
553.440305	1.001515
553.798288	1.001136
554.156215	1.001225
554.514086	1.001528
554.871902	1.001238
555.229661	1.001350
555.587365	1.001851
555.945014	1.001592
556.302606	1.001534
556.660143	1.001613
557.017625	1.001831
557.375050	1.001302
557.732421	1.001648
558.089735	1.001770
558.446994	1.001402
558.804197	1.002112
559.161345	1.000565
559.518437	1.001361
559.875474	1.001025
560.232455	1.001862
560.589381	1.001623
560.946251	1.000877
561.303065	1.001956
561.659825	1.000798
562.016528	1.001576
562.373177	1.001875
562.729770	1.000977
563.086307	1.000534
563.442789	1.001527
563.799216	1.000852
564.155587	1.002150
564.511904	1.002040
564.868164	1.000652
565.224370	1.001436
565.580520	1.001773
565.936615	1.001866
566.292654	1.001532
566.648638	1.002137
567.004567	1.001045
567.360441	1.001890
567.716260	1.000987
568.072023	1.001514
568.427732	1.001768
568.783385	1.001323
569.138982	1.001571
569.494525	1.001536
569.850013	1.001897
570.205445	1.001893
570.560823	1.001068
570.916145	1.000834
571.271412	1.001782
571.626625	1.000952
571.981782	1.001488
572.336884	1.001508
572.691931	1.001493
573.046923	1.002622
573.401860	1.001154
573.756743	1.001788
574.111570	1.001533
574.466342	1.002020
574.821059	1.000967
575.175722	1.002234
575.530330	1.000992
575.884882	1.001231
576.239380	1.001182
576.593823	1.001722
576.948211	1.002242
577.302544	1.001443
577.656823	1.001271
578.011047	1.001033
578.365216	1.002752
578.719330	1.001749
579.073389	1.000341
579.427394	1.000784
579.781344	1.001636
580.135239	1.000520
580.489080	1.001522
580.842866	1.001803
581.196597	1.001088
581.550273	1.001302
581.903895	1.001706
582.257463	1.001386
582.610975	1.001551
582.964434	1.001852
583.317837	1.002176
583.671186	1.002154
584.024481	1.001422
584.377721	1.000914
584.730906	1.001379
585.084037	1.001809
585.437113	1.002269
585.790135	1.001691
586.143103	1.001797
586.496016	1.001590
586.848874	1.002264
587.201679	1.001406
587.554428	1.000754
587.907124	1.001960
588.259765	1.001329
588.612352	1.001660
588.964884	1.001378
589.317362	1.001179
589.669786	1.001934
590.022155	1.001572
590.374470	1.001906
590.726731	1.001088
591.078937	1.001517
591.431090	1.001640
591.783188	1.001351
592.135232	1.001973
592.487222	1.001742
592.839157	1.001122
593.191038	1.001693
593.542866	1.001513
593.894639	1.000722
594.246358	1.002078
594.598022	1.001433
594.949633	1.002307
595.301190	1.001207
595.652692	1.000889
596.004141	1.001529
596.355535	1.001522
596.706876	1.001720
597.058162	1.002031
597.409395	1.001277
597.760573	1.001108
598.111698	1.001806
598.462768	1.000643
598.813785	1.000700
599.164748	1.001103
599.515657	1.001531
599.866511	1.002348
600.217312	1.001813
600.568060	1.001063
600.918753	1.001648
601.269392	1.001661
601.619978	1.001318
601.970510	1.001212
602.320988	1.000904
602.671412	1.001105
603.021783	1.001511
603.372100	1.002162
603.722363	1.002146
604.072572	1.001263
604.422728	1.000789
604.772830	1.000800
605.122878	1.001743
605.472872	1.001743
605.822813	1.000847
606.172701	1.001286
606.522534	1.001583
606.872314	1.002145
607.222041	1.001046
607.571714	1.001715
607.921333	1.000712
608.270899	1.000591
608.620411	1.001230
608.969870	1.002603
609.319276	1.001391
609.668627	1.001910
610.017926	1.001073
610.367171	1.001086
610.716362	1.001841
611.065500	1.001151
611.414585	1.001722
611.763616	1.001885
612.112594	1.001548
612.461518	1.000538
612.810389	1.001257
613.159207	1.000906
613.507971	1.000774
613.856682	1.002210
614.205340	1.000396
614.553945	1.001411
614.902496	1.000912
615.250994	1.001178
615.599439	1.001923
615.947830	1.000505
616.296169	1.001800
616.644454	1.001230
616.992686	1.001424
617.340864	1.000960
617.688990	1.000475
618.037063	1.001878
618.385082	1.000595
618.733048	1.000771
619.080961	1.001431
619.428821	1.002344
619.776628	1.000993
620.124382	1.001621
620.472083	1.001145
620.819731	1.002257
621.167326	1.001614
621.514868	1.001715
621.862357	1.001290
622.209793	1.001472
622.557176	1.000716
622.904506	1.001801
623.251783	1.001485
623.599007	1.001578
623.946179	1.000729
624.293297	1.001970
624.640363	1.002151
624.987376	1.001182
625.334336	1.001201
625.681243	1.001209
626.028097	1.001849
626.374899	1.001012
626.721647	1.002059
627.068343	1.001990
627.414987	1.001025
627.761577	0.999742
628.108115	1.001011
628.454600	1.001311
628.801032	1.001096
629.147412	1.000923
629.493739	1.002321
629.840014	1.001094
630.186236	1.001382
630.532405	1.000990
630.878521	1.000421
631.224585	1.001052
631.570597	1.000701
631.916556	1.001547
632.262462	1.000376
632.608316	1.001750
632.954117	1.000616
633.299866	1.001244
633.645562	1.000590
633.991206	1.001535
634.336797	1.001072
634.682336	1.002000
635.027823	1.001161
635.373257	1.001577
635.718639	1.001496
636.063968	1.000195
636.409245	1.001139
636.754470	1.001269
637.099642	1.001611
637.444762	1.001298
637.789829	1.000621
638.134845	1.000931
638.479808	1.001725
638.824719	1.000994
639.169577	1.000839
639.514383	1.001645
639.859137	1.000644
640.203839	1.001042
640.548489	1.001347
640.893086	1.000979
641.237632	1.000926
641.582125	1.001503
641.926566	1.001827
642.270955	1.001553
642.615292	1.000441
642.959576	1.000458
643.303809	1.001523
643.647990	1.000967
643.992118	1.001386
644.336195	1.001151
644.680219	1.001022
645.024192	1.001480
645.368112	0.999892
645.711981	1.000712
646.055797	1.001400
646.399562	1.000300
646.743274	1.001083
647.086935	1.000958
647.430544	1.000707
647.774101	1.000458
648.117606	1.001370
648.461059	1.000740
648.804460	1.000587
649.147810	1.000694
649.491108	1.000802
649.834354	1.001264
650.177548	1.001261
650.520690	1.000709
650.863781	1.000590
651.206820	1.001628
651.549807	1.000581
651.892742	1.001516
652.235626	1.001049
652.578458	1.001139
652.921238	1.000963
653.263967	1.001746
653.606644	1.001446
653.949269	1.001760
654.291843	1.000794
654.634365	1.001098
654.976836	1.000449
655.319255	1.001542
655.661622	1.001189
656.003938	1.001328
656.346203	1.000787
656.688416	1.001782
657.030577	1.001042
657.372687	1.001348
657.714746	0.999889
658.056753	1.001177
658.398708	1.000548
658.740612	1.002155
659.082465	1.000911
659.424266	1.001923
659.766016	1.000252
660.107715	1.001594
660.449362	1.000177
660.790958	1.000203
661.132503	1.001171
661.473996	1.000237
661.815438	1.001516
662.156829	1.001161
662.498168	1.001188
662.839456	1.000294
663.180693	1.001082
663.521879	1.000714
663.863013	1.001692
664.204097	1.000522
664.545129	1.000817
664.886110	1.000015
665.227040	1.000442
665.567918	1.000893
665.908746	1.000403
666.249522	0.999911
666.590248	1.000627
666.930922	1.000914
667.271545	1.001176
667.612118	1.000507
667.952639	1.001393
668.293109	1.001922
668.633528	1.000850
668.973896	1.000473
669.314213	1.000637
669.654480	1.001118
669.994695	1.000545
670.334859	1.001284
670.674973	1.000614
671.015035	1.001250
671.355047	1.001248
671.695008	1.000623
672.034918	1.001084
672.374777	1.001127
672.714585	1.000678
673.054342	1.001188
673.394049	1.000721
673.733705	1.000723
674.073310	0.999994
674.412864	1.000476
674.752368	1.000177
675.091820	1.001398
675.431223	1.001034
675.770574	1.000925
676.109875	1.001239
676.449125	1.000665
676.788324	1.001072
677.127473	1.001916
677.466571	1.001266
677.805619	1.000819
678.144616	1.001769
678.483562	1.001124
678.822458	1.001090
679.161303	1.000320
679.500098	1.000887
679.838842	1.001525
680.177535	1.000980
680.516179	1.000169
680.854771	0.999930
681.193314	1.000861
681.531805	1.001199
681.870247	1.000173
682.208638	1.001015
682.546978	1.000583
682.885268	1.000477
683.223508	1.000831
683.561697	1.000333
683.899836	1.000532
684.237925	0.998758
684.575963	1.000557
684.913951	1.001238
685.251889	0.999955
685.589776	1.001145
685.927614	1.000901
686.265401	1.000750
686.603137	1.000575
686.940824	1.000504
687.278460	1.000761
687.616046	0.999997
687.953582	1.000377
688.291068	1.000281
688.628504	1.000598
