Dividing Wavelength (nm)	Counts (n)	Blue Motor Position (mm): 48.100000	Red Motor Position (mm): 0.000000	
326.493990	1.000297
326.888308	1.000297
327.282561	1.000297
327.676750	1.000385
328.070874	1.000232
328.464933	1.000940
328.858929	1.001252
329.252859	0.999129
329.646726	0.999320
330.040528	1.000297
330.434265	1.000486
330.827938	1.001003
331.221547	1.000457
331.615091	0.999924
332.008571	1.001129
332.401986	0.999553
332.795338	0.999943
333.188625	1.000832
333.581847	0.999855
333.975006	1.000530
334.368100	1.001197
334.761129	0.998766
335.154095	1.000145
335.546996	0.999721
335.939833	0.999357
336.332606	0.999900
336.725315	0.998652
337.117960	0.999594
337.510540	0.999248
337.903056	0.999791
338.295508	1.000675
338.687896	1.000769
339.080220	1.000367
339.472480	0.999038
339.864676	1.000735
340.256807	0.998758
340.648875	0.998782
341.040879	1.000144
341.432818	0.999958
341.824694	0.998961
342.216506	1.000399
342.608253	1.000478
342.999937	0.999413
343.391557	1.000699
343.783113	1.001283
344.174605	1.000700
344.566033	0.999434
344.957397	1.001656
345.348697	1.001598
345.739934	1.000647
346.131106	1.000092
346.522215	0.999615
346.913260	0.999808
347.304241	0.999195
347.695159	0.999810
348.086012	1.000703
348.476802	1.000040
348.867528	0.999681
349.258191	1.000761
349.648789	1.001174
350.039324	0.999048
350.429796	0.999428
350.820203	0.998627
351.210548	1.000010
351.600828	0.999635
351.991045	0.999064
352.381198	1.000442
352.771288	0.999370
353.161314	1.000303
353.551276	0.999206
353.941175	0.999328
354.331010	1.001329
354.720782	1.000272
355.110490	0.998949
355.500135	0.999311
355.889717	0.998524
356.279235	0.999722
356.668689	1.000449
357.058080	0.999994
357.447408	0.999184
357.836672	0.999858
358.225873	0.999763
358.615010	0.999204
359.004084	0.999010
359.393095	0.999197
359.782043	0.999935
360.170927	1.000943
360.559748	0.999805
360.948505	1.000066
361.337199	0.999303
361.725830	1.000400
362.114398	1.000784
362.502903	0.999948
362.891344	0.999204
363.279722	0.999468
363.668037	1.000150
364.056289	1.000444
364.444478	1.001023
364.832603	0.999111
365.220665	1.000554
365.608665	0.998670
365.996601	1.001128
366.384474	0.998209
366.772284	0.999516
367.160031	0.998006
367.547715	0.998335
367.935336	0.998074
368.322893	0.997006
368.710388	0.996889
369.097820	0.995363
369.485189	0.993367
369.872495	0.993230
370.259738	0.991785
370.646918	0.989879
371.034035	0.988599
371.421090	0.987770
371.808081	0.985702
372.195010	0.984239
372.581875	0.982434
372.968678	0.981543
373.355418	0.980737
373.742096	0.978403
374.128710	0.977534
374.515262	0.977369
374.901751	0.975576
375.288177	0.974872
375.674540	0.974672
376.060841	0.974706
376.447079	0.973614
376.833254	0.972148
377.219367	0.974141
377.605417	0.971395
377.991404	0.972613
378.377329	0.973855
378.763191	0.973658
379.148991	0.974164
379.534727	0.973773
379.920402	0.973729
380.306013	0.974347
380.691563	0.975528
381.077049	0.975216
381.462474	0.977613
381.847835	0.977113
382.233134	0.979269
382.618371	0.981850
383.003545	0.980780
383.388657	0.982035
383.773706	0.982948
384.158693	0.985385
384.543618	0.987774
384.928480	0.987430
385.313280	0.988575
385.698017	0.988664
386.082692	0.990047
386.467305	0.990076
386.851856	0.993365
387.236344	0.992646
387.620770	0.995427
388.005133	0.995116
388.389435	0.995179
388.773674	0.996432
389.157851	0.997041
389.541965	0.997987
389.926018	0.997849
390.310008	0.998152
390.693936	0.999701
391.077802	1.000151
391.461606	0.998277
391.845348	0.999054
392.229027	0.997675
392.612645	0.999807
392.996200	1.000139
393.379694	0.999895
393.763125	1.000854
394.146494	0.999112
394.529801	1.000120
394.913047	0.999003
395.296230	0.998888
395.679351	0.999973
396.062410	1.000614
396.445408	0.999966
396.828343	1.000883
397.211217	0.999719
397.594028	0.999377
397.976778	1.000188
398.359466	1.000014
398.742092	1.001103
399.124656	0.999434
399.507158	1.000271
399.889598	1.000935
400.271977	1.000730
400.654294	0.999717
401.036549	1.000394
401.418742	1.000118
401.800874	1.000110
402.182944	1.000016
402.564952	1.000024
402.946898	1.000387
403.328783	1.000927
403.710606	0.999874
404.092367	1.000124
404.474067	1.002093
404.855705	1.001246
405.237282	1.000482
405.618797	1.000963
406.000250	1.000502
406.381642	0.999718
406.762972	1.001702
407.144240	1.001131
407.525447	0.999785
407.906593	1.000157
408.287677	1.000638
408.668700	1.001013
409.049661	1.000929
409.430560	1.000626
409.811399	1.000029
410.192176	1.000250
410.572891	1.001480
410.953545	0.999791
411.334138	0.999740
411.714669	0.999995
412.095139	1.000959
412.475547	1.000595
412.855894	1.001209
413.236180	1.000000
413.616405	1.000501
413.996568	1.000175
414.376670	1.000165
414.756711	1.000176
415.136691	1.000503
415.516609	0.999363
415.896466	1.000893
416.276262	0.999630
416.655997	1.000728
417.035670	1.001073
417.415283	1.001305
417.794834	1.000976
418.174324	1.000588
418.553753	1.001258
418.933121	1.000869
419.312428	1.002022
419.691674	1.001624
420.070859	1.001086
420.449983	1.000719
420.829045	1.000604
421.208047	1.001172
421.586988	1.000734
421.965867	1.000165
422.344686	1.000150
422.723444	1.000187
423.102141	1.000890
423.480777	0.999722
423.859352	1.000216
424.237866	1.000351
424.616319	1.001898
424.994712	1.001138
425.373044	1.001494
425.751314	1.000997
426.129524	1.001778
426.507673	1.000245
426.885762	1.001085
427.263789	1.001018
427.641756	1.000200
428.019662	1.000927
428.397508	1.001177
428.775292	1.000833
429.153016	0.999970
429.530679	1.001085
429.908282	1.000955
430.285824	1.000640
430.663305	1.001505
431.040726	1.001296
431.418086	1.001335
431.795385	1.001791
432.172624	1.001379
432.549802	1.000526
432.926920	1.001496
433.303977	1.000984
433.680974	1.001403
434.057910	1.001738
434.434786	1.001045
434.811601	1.001110
435.188355	1.001175
435.565050	1.001195
435.941683	0.999787
436.318257	0.999910
436.694770	1.000928
437.071222	1.002289
437.447614	1.000802
437.823946	1.001190
438.200218	1.000787
438.576429	1.000912
438.952580	1.001682
439.328670	0.999714
439.704700	0.999823
440.080670	1.000647
440.456580	1.000302
440.832429	1.001084
441.208218	1.000330
441.583947	1.001587
441.959616	1.001031
442.335224	1.001818
442.710773	1.001178
443.086261	1.000675
443.461689	1.000919
443.837057	1.000667
444.212365	1.001653
444.587612	1.001740
444.962800	1.001291
445.337927	1.001540
445.712995	1.000683
446.088002	1.000506
446.462949	1.001017
446.837837	1.002498
447.212664	1.001337
447.587431	1.001939
447.962139	1.001125
448.336786	1.000648
448.711374	1.000213
449.085901	1.000685
449.460369	1.001630
449.834776	1.000958
450.209124	1.001757
450.583412	1.000621
450.957640	1.000961
451.331808	1.001841
451.705917	1.000153
452.079965	1.001127
452.453954	1.001440
452.827883	1.001987
453.201752	1.000929
453.575562	1.000993
453.949311	1.000860
454.323001	1.000960
454.696632	1.001051
455.070202	1.000666
455.443713	1.001276
455.817164	1.000310
456.190556	1.000597
456.563888	1.001705
456.937160	1.001282
457.310373	1.000914
457.683526	1.000836
458.056619	1.001120
458.429653	1.000906
458.802628	1.000693
459.175542	1.000666
459.548398	1.001313
459.921194	1.001641
460.293930	1.001871
460.666607	1.001038
461.039224	1.001270
461.411782	1.001349
461.784280	1.001236
462.156719	1.001757
462.529099	1.001365
462.901419	1.001270
463.273680	1.000540
463.645882	1.000301
464.018024	1.001861
464.390106	1.001301
464.762130	1.001465
465.134094	1.001589
465.505999	1.001438
465.877845	1.000942
466.249631	1.001010
466.621358	1.000796
466.993026	1.001292
467.364634	1.001144
467.736184	1.001453
468.107674	1.001759
468.479105	1.001361
468.850477	1.001314
469.221790	1.002353
469.593043	1.000805
469.964238	1.001537
470.335373	1.000930
470.706449	1.000836
471.077467	1.001731
471.448425	1.001875
471.819324	1.001587
472.190164	1.000931
472.560945	1.001448
472.931667	1.001814
473.302330	1.001320
473.672934	1.001950
474.043479	1.001059
474.413965	1.001166
474.784393	1.001295
475.154761	1.000770
475.525070	1.001244
475.895321	1.001932
476.265513	1.001266
476.635645	1.002165
477.005719	1.001125
477.375734	1.000953
477.745691	1.001037
478.115588	1.001171
478.485427	1.001237
478.855207	1.001538
479.224928	1.001862
479.594591	1.001775
479.964194	1.001336
480.333739	1.001449
480.703226	1.000902
481.072653	1.001055
481.442022	1.001150
481.811333	1.001254
482.180584	1.001263
482.549777	1.000890
482.918912	1.001372
483.287988	1.001197
483.657005	1.001260
484.025964	1.001281
484.394864	1.001363
484.763706	1.001146
485.132489	1.001366
485.501213	1.001060
485.869879	1.000938
486.238487	1.000554
486.607036	1.001949
486.975527	1.000979
487.343959	1.000939
487.712333	1.001340
488.080648	1.000265
488.448905	1.001569
488.817104	1.001066
489.185244	1.001339
489.553326	1.001253
489.921350	1.001614
490.289315	1.001422
490.657222	1.000753
491.025070	1.002260
491.392861	1.002200
491.760593	1.000674
492.128267	1.001032
492.495883	1.000284
492.863440	1.001149
493.230939	1.001183
493.598380	1.001481
493.965763	1.001074
494.333088	1.000234
494.700354	1.000942
495.067563	1.000981
495.434713	1.001400
495.801805	1.000865
496.168839	1.001305
496.535815	1.001020
496.902733	1.001212
497.269593	1.001077
497.636395	1.000674
498.003139	1.000677
498.369825	1.001275
498.736453	1.001564
499.103023	1.001529
499.469535	1.000965
499.835989	1.001660
500.202385	1.000485
500.568723	1.000258
500.935003	1.001335
501.301226	1.001085
501.667390	1.000682
502.033497	1.000923
502.399546	1.000909
502.765537	1.001310
503.131470	1.001215
503.497345	1.001814
503.863163	1.001208
504.228923	1.000075
504.594625	1.000634
504.960269	1.000930
505.325856	1.001657
505.691385	1.000771
506.056856	1.001315
506.422270	1.001038
506.787625	1.001283
507.152924	1.001347
507.518164	1.000883
507.883347	1.001049
508.248472	1.001361
508.613540	1.000621
508.978550	1.001395
509.343503	1.001030
509.708398	1.001419
510.073236	1.001530
510.438016	1.000897
510.802738	1.000771
511.167403	1.000885
511.532010	1.001632
511.896561	1.001454
512.261053	1.000812
512.625488	1.001302
512.989866	1.001303
513.354186	1.000622
513.718449	1.001579
514.082655	1.001069
514.446803	1.001347
514.810894	1.001303
515.174927	1.001212
515.538904	1.001467
515.902822	1.002263
516.266684	1.001184
516.630488	1.001365
516.994235	1.001853
517.357925	1.001231
517.721558	1.001024
518.085133	1.000746
518.448651	1.001202
518.812112	1.001371
519.175516	1.000696
519.538863	1.000875
519.902152	1.001631
520.265385	1.001068
520.628560	1.000992
520.991678	1.001084
521.354739	1.001542
521.717743	1.001307
522.080690	1.001115
522.443580	1.000806
522.806413	1.000939
523.169189	1.001913
523.531908	1.000784
523.894569	1.001450
524.257174	1.001569
524.619722	1.001447
524.982213	1.001559
525.344647	1.001229
525.707025	1.000921
526.069345	1.000863
526.431608	1.001141
526.793815	1.001587
527.155964	1.001729
527.518057	1.001637
527.880093	1.001446
528.242072	1.001338
528.603995	1.000402
528.965860	1.002327
529.327669	1.001836
529.689421	1.000914
530.051117	1.001374
530.412755	1.001387
530.774337	1.000704
531.135862	1.001741
531.497331	1.001180
531.858743	1.001959
532.220098	1.000374
532.581396	1.001381
532.942638	1.001233
533.303824	1.001624
533.664953	1.000884
534.026025	1.002117
534.387040	1.001381
534.747999	1.001189
535.108902	1.001354
535.469748	1.002007
535.830537	1.001458
536.191270	1.001593
536.551947	1.001460
536.912567	1.001601
537.273131	1.001312
537.633638	1.001728
537.994089	1.001450
538.354483	1.001142
538.714821	1.001237
539.075103	1.001650
539.435328	1.001648
539.795497	1.001772
540.155609	1.001303
540.515665	1.001862
540.875665	1.000863
541.235609	1.002008
541.595496	1.000414
541.955328	1.001122
542.315102	1.001965
542.674821	1.001600
543.034483	1.001067
543.394090	1.000336
543.753640	1.001186
544.113134	1.000663
544.472571	1.001616
544.831953	1.001024
545.191278	1.001637
545.550548	1.001034
545.909761	1.001209
546.268918	1.002272
546.628019	1.001965
546.987064	1.001222
547.346053	1.001037
547.704986	1.001147
548.063863	1.000973
548.422684	1.001367
548.781449	1.001090
549.140158	1.001696
549.498811	1.000609
549.857408	1.000297
550.215949	1.000596
550.574434	1.000965
550.932864	1.001894
551.291237	1.001428
551.649555	1.001416
552.007817	1.001677
552.366022	1.001810
552.724173	1.002545
553.082267	1.000572
553.440305	1.001239
553.798288	1.000507
554.156215	1.001130
554.514086	1.001377
554.871902	1.001049
555.229661	1.000680
555.587365	1.000595
555.945014	1.001573
556.302606	1.000638
556.660143	1.002207
557.017625	1.001647
557.375050	1.001661
557.732421	1.001037
558.089735	1.000772
558.446994	1.000943
558.804197	1.001284
559.161345	1.000556
559.518437	1.001200
559.875474	1.001314
560.232455	1.001673
560.589381	1.001590
560.946251	1.001185
561.303065	1.001171
561.659825	1.000913
562.016528	1.002126
562.373177	1.001282
562.729770	1.000980
563.086307	1.000712
563.442789	1.001454
563.799216	1.001046
564.155587	1.001847
564.511904	1.002067
564.868164	1.001107
565.224370	1.001231
565.580520	1.001110
565.936615	1.002074
566.292654	1.000598
566.648638	1.002185
567.004567	1.000749
567.360441	1.001949
567.716260	1.001341
568.072023	1.000649
568.427732	1.001368
568.783385	1.001193
569.138982	1.001568
569.494525	1.001643
569.850013	1.001602
570.205445	1.001890
570.560823	1.000975
570.916145	1.000766
571.271412	1.001260
571.626625	1.001105
571.981782	1.001208
572.336884	1.001030
572.691931	1.001003
573.046923	1.001959
573.401860	1.000603
573.756743	1.001752
574.111570	1.001166
574.466342	1.002290
574.821059	1.001160
575.175722	1.001277
575.530330	1.001278
575.884882	1.000639
576.239380	1.001157
576.593823	1.001235
576.948211	1.001376
577.302544	1.001384
577.656823	1.001573
578.011047	1.000920
578.365216	1.001980
578.719330	1.001347
579.073389	1.000664
579.427394	1.000960
579.781344	1.001521
580.135239	1.000689
580.489080	1.001289
580.842866	1.002038
581.196597	1.001084
581.550273	1.000866
581.903895	1.002172
582.257463	1.001007
582.610975	1.001004
582.964434	1.001980
583.317837	1.001664
583.671186	1.002229
584.024481	1.001110
584.377721	1.000518
584.730906	1.001215
585.084037	1.001519
585.437113	1.002319
585.790135	1.001442
586.143103	1.001426
586.496016	1.000850
586.848874	1.001075
587.201679	1.001414
587.554428	1.001056
587.907124	1.001670
588.259765	1.001693
588.612352	1.002077
588.964884	1.001694
589.317362	1.000912
589.669786	1.001565
590.022155	1.001329
590.374470	1.001032
590.726731	1.001216
591.078937	1.001507
591.431090	1.001357
591.783188	1.000266
592.135232	1.002364
592.487222	1.001764
592.839157	1.001427
593.191038	1.001935
593.542866	1.000836
593.894639	1.000665
594.246358	1.001581
594.598022	1.000988
594.949633	1.000955
595.301190	1.001393
595.652692	1.000960
596.004141	1.001241
596.355535	1.001171
596.706876	1.001723
597.058162	1.001953
597.409395	1.000963
597.760573	1.001282
598.111698	1.001570
598.462768	1.001405
598.813785	1.000463
599.164748	1.000660
599.515657	1.001151
599.866511	1.001750
600.217312	1.001953
600.568060	1.001309
600.918753	1.001414
601.269392	1.001668
601.619978	1.001936
601.970510	1.000855
602.320988	1.001123
602.671412	1.000462
603.021783	1.001637
603.372100	1.002038
603.722363	1.001907
604.072572	1.001138
604.422728	1.001065
604.772830	1.000645
605.122878	1.001730
605.472872	1.002511
605.822813	1.000744
606.172701	1.001108
606.522534	1.001446
606.872314	1.001294
607.222041	1.001290
607.571714	1.001050
607.921333	1.000531
608.270899	1.001067
608.620411	1.001476
608.969870	1.002095
609.319276	1.000893
609.668627	1.001903
610.017926	1.001117
610.367171	1.001409
610.716362	1.001429
611.065500	1.001319
611.414585	1.000981
611.763616	1.001271
612.112594	1.000972
612.461518	1.000385
612.810389	1.000964
613.159207	1.000706
613.507971	1.000168
613.856682	1.002218
614.205340	1.000035
614.553945	1.001000
614.902496	1.000911
615.250994	1.001097
615.599439	1.001808
615.947830	1.000823
616.296169	1.001577
616.644454	1.000782
616.992686	1.000787
617.340864	1.001739
617.688990	1.001311
618.037063	1.001131
618.385082	1.001124
618.733048	1.000880
619.080961	1.001206
619.428821	1.001774
619.776628	1.000476
620.124382	1.001754
620.472083	1.001673
620.819731	1.001945
621.167326	1.001440
621.514868	1.001688
621.862357	1.001365
622.209793	1.001406
622.557176	1.000899
622.904506	1.000990
623.251783	1.001426
623.599007	1.002001
623.946179	1.000256
624.293297	1.001995
624.640363	1.001131
624.987376	1.000870
625.334336	1.000824
625.681243	1.000948
626.028097	1.001381
626.374899	1.001063
626.721647	1.001878
627.068343	1.001159
627.414987	1.001579
627.761577	1.000458
628.108115	1.000051
628.454600	1.001538
628.801032	1.001101
629.147412	1.001061
629.493739	1.002102
629.840014	1.000948
630.186236	1.001375
630.532405	1.001436
630.878521	1.000986
631.224585	1.000826
631.570597	1.000335
631.916556	1.000977
632.262462	1.000218
632.608316	1.001366
632.954117	1.000333
633.299866	1.000947
633.645562	1.000366
633.991206	1.001499
634.336797	1.001229
634.682336	1.001261
635.027823	1.001119
635.373257	1.001334
635.718639	1.001467
636.063968	1.000905
636.409245	1.001061
636.754470	1.001469
637.099642	1.001735
637.444762	1.001373
637.789829	1.001230
638.134845	1.000689
638.479808	1.000686
638.824719	1.001362
639.169577	1.001506
639.514383	1.001376
639.859137	1.000561
640.203839	1.000224
640.548489	1.000889
640.893086	1.000274
641.237632	1.001495
641.582125	1.001034
641.926566	1.001411
642.270955	1.001105
642.615292	1.001041
642.959576	1.000566
643.303809	1.001909
643.647990	1.000599
643.992118	1.000716
644.336195	1.000609
644.680219	1.000907
645.024192	1.000713
645.368112	1.000292
645.711981	1.000821
646.055797	1.000606
646.399562	1.000168
646.743274	1.000524
647.086935	1.000624
647.430544	1.000552
647.774101	1.000279
648.117606	1.001062
648.461059	1.001479
648.804460	1.001330
649.147810	1.000828
649.491108	1.001014
649.834354	1.000896
650.177548	1.000584
650.520690	1.001105
650.863781	1.000677
651.206820	1.000939
651.549807	1.000946
651.892742	1.001217
652.235626	1.001145
652.578458	1.000711
652.921238	1.000742
653.263967	1.000964
653.606644	1.000483
653.949269	1.001595
654.291843	1.000210
654.634365	1.001666
654.976836	1.000443
655.319255	1.001588
655.661622	1.001500
656.003938	1.000594
656.346203	1.000546
656.688416	1.001322
657.030577	1.000178
657.372687	1.000994
657.714746	1.000193
658.056753	1.000309
658.398708	1.000361
658.740612	1.001106
659.082465	1.000397
659.424266	1.001402
659.766016	1.000316
660.107715	1.000401
660.449362	1.000219
660.790958	1.000600
661.132503	1.001583
661.473996	1.000528
661.815438	1.001368
662.156829	1.000988
662.498168	1.000959
662.839456	0.999715
663.180693	1.000615
663.521879	1.000614
663.863013	1.000732
664.204097	0.999409
664.545129	1.001279
664.886110	1.000262
665.227040	1.000808
665.567918	1.000747
665.908746	1.000986
666.249522	1.000706
666.590248	1.000586
666.930922	1.000653
667.271545	1.001108
667.612118	1.001097
667.952639	1.000813
668.293109	1.001182
668.633528	1.000869
668.973896	1.000356
669.314213	0.999786
669.654480	1.000853
669.994695	0.999277
670.334859	1.001200
670.674973	0.999973
671.015035	1.000993
671.355047	1.000335
671.695008	1.000193
672.034918	0.999936
672.374777	1.000294
672.714585	1.000483
673.054342	1.001052
673.394049	1.000167
673.733705	0.999857
674.073310	1.000729
674.412864	1.000397
674.752368	0.999904
675.091820	1.001351
675.431223	1.000316
675.770574	0.999994
676.109875	1.000179
676.449125	0.999822
676.788324	0.999856
677.127473	1.000302
677.466571	1.000576
677.805619	1.000946
678.144616	1.001642
678.483562	1.000656
678.822458	1.000628
679.161303	1.000487
679.500098	1.000175
679.838842	1.000745
680.177535	1.000596
680.516179	0.999810
680.854771	0.999285
681.193314	0.999835
681.531805	1.000705
681.870247	1.000542
682.208638	1.001253
682.546978	0.999767
682.885268	1.000517
683.223508	0.999424
683.561697	1.000511
683.899836	1.000211
684.237925	1.000078
684.575963	0.999541
684.913951	1.000553
685.251889	1.000793
685.589776	0.999556
685.927614	0.999928
686.265401	0.999748
686.603137	1.000317
686.940824	1.000081
687.278460	1.001336
687.616046	0.999084
687.953582	1.000822
688.291068	1.000978
688.628504	1.000084
