Dividing Wavelength (nm)	Counts (n)	Blue Motor Position (mm): 47.700000	Red Motor Position (mm): 0.000000	
326.493990	1.000158
326.888308	1.000158
327.282561	1.000158
327.676750	1.000192
328.070874	1.000757
328.464933	1.002419
328.858929	1.001723
329.252859	1.000625
329.646726	0.998820
330.040528	1.001185
330.434265	0.999426
330.827938	0.999502
331.221547	1.000620
331.615091	1.002474
332.008571	1.001927
332.401986	1.000670
332.795338	1.000645
333.188625	1.000395
333.581847	1.000593
333.975006	1.001017
334.368100	1.001520
334.761129	1.000212
335.154095	0.999985
335.546996	0.999447
335.939833	0.998841
336.332606	0.999940
336.725315	0.999574
337.117960	1.001970
337.510540	0.999441
337.903056	1.000476
338.295508	1.002439
338.687896	1.000325
339.080220	1.000971
339.472480	0.999904
339.864676	1.000063
340.256807	0.998379
340.648875	1.001264
341.040879	1.000815
341.432818	1.001466
341.824694	1.000071
342.216506	1.001453
342.608253	1.000672
342.999937	0.999734
343.391557	1.000781
343.783113	1.002479
344.174605	1.001028
344.566033	0.999885
344.957397	1.000136
345.348697	1.000599
345.739934	1.000297
346.131106	0.999628
346.522215	0.999694
346.913260	1.000534
347.304241	1.000821
347.695159	1.001768
348.086012	1.000211
348.476802	1.000708
348.867528	0.998998
349.258191	1.000850
349.648789	1.000340
350.039324	1.001043
350.429796	1.000340
350.820203	0.998792
351.210548	1.000953
351.600828	1.000423
351.991045	0.999572
352.381198	1.001505
352.771288	1.000163
353.161314	1.001858
353.551276	1.000768
353.941175	0.998469
354.331010	1.001589
354.720782	1.000337
355.110490	1.000804
355.500135	1.001165
355.889717	0.999365
356.279235	0.998518
356.668689	1.001308
357.058080	1.000562
357.447408	0.999716
357.836672	1.000253
358.225873	1.000642
358.615010	1.000654
359.004084	0.999808
359.393095	1.001326
359.782043	1.000662
360.170927	1.000387
360.559748	1.000736
360.948505	1.000401
361.337199	1.000086
361.725830	0.999994
362.114398	0.999569
362.502903	0.999733
362.891344	0.999114
363.279722	0.999996
363.668037	1.000558
364.056289	1.000297
364.444478	1.001551
364.832603	1.000872
365.220665	0.999844
365.608665	1.000494
365.996601	1.000044
366.384474	0.998736
366.772284	0.999840
367.160031	0.997998
367.547715	0.999307
367.935336	0.997603
368.322893	0.997020
368.710388	0.997000
369.097820	0.994963
369.485189	0.992715
369.872495	0.992196
370.259738	0.991164
370.646918	0.988022
371.034035	0.987915
371.421090	0.985740
371.808081	0.982623
372.195010	0.982051
372.581875	0.979939
372.968678	0.978890
373.355418	0.976566
373.742096	0.972628
374.128710	0.973170
374.515262	0.972852
374.901751	0.970030
375.288177	0.968991
375.674540	0.968562
376.060841	0.967426
376.447079	0.965760
376.833254	0.965614
377.219367	0.965738
377.605417	0.962990
377.991404	0.964875
378.377329	0.964181
378.763191	0.964241
379.148991	0.964437
379.534727	0.964364
379.920402	0.964403
380.306013	0.964701
380.691563	0.966014
381.077049	0.966718
381.462474	0.968183
381.847835	0.967423
382.233134	0.970763
382.618371	0.973232
383.003545	0.972551
383.388657	0.974734
383.773706	0.976459
384.158693	0.977033
384.543618	0.980075
384.928480	0.980766
385.313280	0.981993
385.698017	0.982595
386.082692	0.984128
386.467305	0.986498
386.851856	0.987494
387.236344	0.988150
387.620770	0.991540
388.005133	0.991882
388.389435	0.991523
388.773674	0.993428
389.157851	0.993963
389.541965	0.996087
389.926018	0.995909
390.310008	0.996588
390.693936	0.998120
391.077802	0.998235
391.461606	0.997570
391.845348	0.998996
392.229027	0.997373
392.612645	0.998687
392.996200	0.998993
393.379694	0.998836
393.763125	1.000188
394.146494	0.999175
394.529801	0.999389
394.913047	0.998736
395.296230	0.999779
395.679351	0.999265
396.062410	0.999286
396.445408	1.000188
396.828343	1.000364
397.211217	0.999938
397.594028	0.999862
397.976778	1.000086
398.359466	1.000026
398.742092	1.001298
399.124656	0.999464
399.507158	0.998037
399.889598	1.000512
400.271977	1.000839
400.654294	0.999505
401.036549	1.000871
401.418742	1.000310
401.800874	1.000093
402.182944	0.999568
402.564952	1.000123
402.946898	1.000787
403.328783	1.000517
403.710606	1.000053
404.092367	1.000003
404.474067	1.001337
404.855705	1.000361
405.237282	0.999878
405.618797	0.999837
406.000250	1.000033
406.381642	0.999420
406.762972	1.000747
407.144240	1.001049
407.525447	0.999136
407.906593	0.998759
408.287677	1.000126
408.668700	1.000142
409.049661	0.999993
409.430560	0.999580
409.811399	1.000403
410.192176	1.000674
410.572891	1.001341
410.953545	0.999516
411.334138	0.999889
411.714669	0.999677
412.095139	1.000041
412.475547	1.000464
412.855894	1.000251
413.236180	0.999387
413.616405	0.999687
413.996568	1.000335
414.376670	1.000063
414.756711	1.000544
415.136691	1.000803
415.516609	1.000709
415.896466	1.000530
416.276262	0.999593
416.655997	1.000442
417.035670	1.000825
417.415283	1.000057
417.794834	1.000836
418.174324	1.001172
418.553753	1.000395
418.933121	0.999370
419.312428	1.001020
419.691674	1.000837
420.070859	1.000777
420.449983	1.001175
420.829045	1.000167
421.208047	1.001124
421.586988	0.999422
421.965867	0.999606
422.344686	0.999994
422.723444	0.999541
423.102141	1.000171
423.480777	1.000107
423.859352	0.999471
424.237866	1.001059
424.616319	1.001064
424.994712	1.000978
425.373044	1.000381
425.751314	1.000846
426.129524	1.000708
426.507673	0.999426
426.885762	1.000557
427.263789	0.999905
427.641756	1.000688
428.019662	1.000908
428.397508	1.000823
428.775292	0.999685
429.153016	1.000253
429.530679	1.000618
429.908282	1.000711
430.285824	1.000302
430.663305	1.001314
431.040726	0.999543
431.418086	1.000434
431.795385	1.001764
432.172624	1.001707
432.549802	1.000222
432.926920	1.000289
433.303977	1.000412
433.680974	1.000690
434.057910	1.001018
434.434786	1.000440
434.811601	1.000407
435.188355	1.001452
435.565050	1.001546
435.941683	1.000979
436.318257	0.999796
436.694770	1.000707
437.071222	1.001476
437.447614	1.000095
437.823946	1.000561
438.200218	1.000677
438.576429	1.000576
438.952580	1.000418
439.328670	1.000061
439.704700	0.999899
440.080670	1.000753
440.456580	1.000228
440.832429	1.001051
441.208218	1.001330
441.583947	1.000687
441.959616	0.999432
442.335224	1.001332
442.710773	1.001210
443.086261	1.000662
443.461689	1.000183
443.837057	1.000259
444.212365	1.000606
444.587612	1.001601
444.962800	1.000802
445.337927	1.000687
445.712995	1.000843
446.088002	0.999719
446.462949	0.999823
446.837837	1.001708
447.212664	1.000548
447.587431	1.000477
447.962139	1.000750
448.336786	1.000033
448.711374	1.000669
449.085901	1.000766
449.460369	1.001316
449.834776	1.000343
450.209124	1.001319
450.583412	1.001079
450.957640	1.000999
451.331808	1.001126
451.705917	1.000353
452.079965	1.000669
452.453954	1.000901
452.827883	1.000154
453.201752	1.000257
453.575562	1.000618
453.949311	1.000992
454.323001	1.001487
454.696632	1.001041
455.070202	1.000013
455.443713	1.000690
455.817164	1.000935
456.190556	1.000406
456.563888	1.001012
456.937160	1.000869
457.310373	0.999985
457.683526	1.000604
458.056619	1.000989
458.429653	0.999867
458.802628	1.000587
459.175542	1.000458
459.548398	1.000013
459.921194	1.000564
460.293930	1.001553
460.666607	1.000993
461.039224	1.000579
461.411782	1.000605
461.784280	1.000387
462.156719	1.001673
462.529099	0.999747
462.901419	1.000541
463.273680	0.999683
463.645882	1.000395
464.018024	1.001303
464.390106	1.001095
464.762130	1.000475
465.134094	1.001425
465.505999	1.001385
465.877845	1.000691
466.249631	1.000562
466.621358	1.000566
466.993026	1.000470
467.364634	1.000930
467.736184	1.000836
468.107674	1.000571
468.479105	1.000567
468.850477	1.001145
469.221790	1.000819
469.593043	1.000561
469.964238	1.000846
470.335373	1.001027
470.706449	1.000665
471.077467	1.001274
471.448425	1.001092
471.819324	1.000485
472.190164	1.000932
472.560945	1.000789
472.931667	1.000919
473.302330	1.000618
473.672934	1.001353
474.043479	1.001057
474.413965	1.001572
474.784393	1.000698
475.154761	0.999557
475.525070	1.000883
475.895321	1.001417
476.265513	1.001962
476.635645	1.001400
477.005719	1.001208
477.375734	1.000791
477.745691	1.000544
478.115588	1.000752
478.485427	1.001074
478.855207	1.000790
479.224928	1.000811
479.594591	1.000613
479.964194	1.001059
480.333739	1.001180
480.703226	1.000506
481.072653	1.000366
481.442022	1.001226
481.811333	1.000835
482.180584	1.000908
482.549777	1.000915
482.918912	1.000052
483.287988	1.000798
483.657005	1.000852
484.025964	1.000599
484.394864	1.000635
484.763706	1.000595
485.132489	1.000936
485.501213	1.000607
485.869879	1.001102
486.238487	1.000359
486.607036	1.001395
486.975527	1.000906
487.343959	1.000456
487.712333	1.000306
488.080648	1.000412
488.448905	1.001020
488.817104	1.000594
489.185244	1.000378
489.553326	1.000841
489.921350	1.001187
490.289315	1.000255
490.657222	1.000234
491.025070	1.001427
491.392861	1.000981
491.760593	1.000415
492.128267	1.000431
492.495883	0.999965
492.863440	1.000169
493.230939	1.000501
493.598380	1.001194
493.965763	1.000265
494.333088	1.000316
494.700354	1.001006
495.067563	1.000525
495.434713	1.001191
495.801805	1.000755
496.168839	1.001060
496.535815	1.001169
496.902733	1.000663
497.269593	1.000365
497.636395	0.999973
498.003139	1.000301
498.369825	1.001593
498.736453	1.000474
499.103023	1.000738
499.469535	1.001066
499.835989	1.000754
500.202385	1.000619
500.568723	1.000408
500.935003	1.001071
501.301226	1.000834
501.667390	1.000414
502.033497	1.000469
502.399546	1.000606
502.765537	1.000685
503.131470	1.000574
503.497345	1.000910
503.863163	1.000680
504.228923	1.000071
504.594625	1.000386
504.960269	1.000825
505.325856	1.001185
505.691385	1.000942
506.056856	1.000843
506.422270	1.000451
506.787625	1.001065
507.152924	1.001471
507.518164	1.000033
507.883347	1.000154
508.248472	1.001299
508.613540	1.000893
508.978550	1.001249
509.343503	1.000343
509.708398	1.000782
510.073236	1.000409
510.438016	0.999998
510.802738	1.000501
511.167403	1.000105
511.532010	1.001485
511.896561	1.000680
512.261053	1.000325
512.625488	1.000148
512.989866	1.001021
513.354186	1.000859
513.718449	1.000492
514.082655	0.999872
514.446803	1.001216
514.810894	1.000980
515.174927	1.000752
515.538904	1.001379
515.902822	1.000496
516.266684	1.000786
516.630488	1.001268
516.994235	1.000415
517.357925	1.000999
517.721558	1.000490
518.085133	0.999869
518.448651	1.000631
518.812112	1.000776
519.175516	1.000657
519.538863	1.000028
519.902152	1.000554
520.265385	1.000675
520.628560	0.999794
520.991678	1.000649
521.354739	1.001208
521.717743	1.000816
522.080690	1.000124
522.443580	1.000299
522.806413	0.999893
523.169189	1.001247
523.531908	0.999972
523.894569	1.000768
524.257174	1.001421
524.619722	1.000332
524.982213	1.000493
525.344647	1.000287
525.707025	1.000224
526.069345	1.000577
526.431608	1.000418
526.793815	1.001388
527.155964	1.000652
527.518057	1.000993
527.880093	1.000625
528.242072	1.000930
528.603995	1.000680
528.965860	1.000614
529.327669	1.000860
529.689421	1.000241
530.051117	1.000587
530.412755	1.000739
530.774337	0.999641
531.135862	1.000833
531.497331	1.000102
531.858743	1.000675
532.220098	1.000278
532.581396	0.999982
532.942638	1.000510
533.303824	1.001491
533.664953	1.000026
534.026025	1.001425
534.387040	1.001005
534.747999	1.000364
535.108902	1.000586
535.469748	1.001362
535.830537	1.000883
536.191270	1.000874
536.551947	1.000656
536.912567	1.001226
537.273131	1.001369
537.633638	1.000255
537.994089	1.000661
538.354483	1.000596
538.714821	1.000725
539.075103	1.000834
539.435328	1.000822
539.795497	1.000254
540.155609	0.999854
540.515665	1.001334
540.875665	1.000818
541.235609	1.000475
541.595496	1.000785
541.955328	1.000956
542.315102	1.000889
542.674821	1.001253
543.034483	1.000679
543.394090	1.000907
543.753640	1.000604
544.113134	0.999984
544.472571	1.001064
544.831953	1.000360
545.191278	1.000997
545.550548	1.000249
545.909761	1.000733
546.268918	1.001558
546.628019	1.001324
546.987064	1.000507
547.346053	1.000356
547.704986	1.000806
548.063863	1.000208
548.422684	1.001218
548.781449	1.000689
549.140158	1.000569
549.498811	1.000794
549.857408	1.000161
550.215949	1.000033
550.574434	1.001153
550.932864	1.000699
551.291237	1.000361
551.649555	1.001100
552.007817	1.000740
552.366022	1.001101
552.724173	1.000979
553.082267	1.000791
553.440305	1.000425
553.798288	1.000458
554.156215	1.000941
554.514086	1.000410
554.871902	1.000696
555.229661	1.000471
555.587365	1.001062
555.945014	1.001493
556.302606	0.999857
556.660143	1.001453
557.017625	1.000901
557.375050	1.000031
557.732421	1.000542
558.089735	1.000303
558.446994	1.000380
558.804197	1.000986
559.161345	1.000530
559.518437	1.000438
559.875474	1.000887
560.232455	1.000759
560.589381	1.000928
560.946251	1.000608
561.303065	1.000372
561.659825	1.000786
562.016528	1.001301
562.373177	1.000997
562.729770	1.001038
563.086307	1.000063
563.442789	1.001032
563.799216	1.000440
564.155587	1.001222
564.511904	1.000884
564.868164	1.000151
565.224370	1.000696
565.580520	1.000767
565.936615	1.000991
566.292654	1.000999
566.648638	1.000775
567.004567	1.000637
567.360441	1.000665
567.716260	1.000811
568.072023	1.000506
568.427732	1.000597
568.783385	1.000267
569.138982	0.999896
569.494525	1.000385
569.850013	1.001543
570.205445	1.000724
570.560823	1.000898
570.916145	0.999796
571.271412	1.000645
571.626625	1.000789
571.981782	1.000902
572.336884	1.001078
572.691931	1.000786
573.046923	1.001108
573.401860	1.000825
573.756743	1.000699
574.111570	1.000257
574.466342	1.000969
574.821059	1.000383
575.175722	1.001103
575.530330	1.000373
575.884882	1.000629
576.239380	1.001330
576.593823	1.000562
576.948211	1.001060
577.302544	1.001323
577.656823	1.001012
578.011047	1.000437
578.365216	1.001549
578.719330	1.000742
579.073389	1.000660
579.427394	1.000556
579.781344	1.000667
580.135239	1.000453
580.489080	1.001051
580.842866	1.000840
581.196597	1.001041
581.550273	1.000518
581.903895	1.001023
582.257463	1.000120
582.610975	1.000724
582.964434	1.000978
583.317837	1.001319
583.671186	1.000954
584.024481	1.000328
584.377721	1.000281
584.730906	1.000953
585.084037	1.002100
585.437113	1.001285
585.790135	1.000195
586.143103	1.000898
586.496016	1.000938
586.848874	1.001166
587.201679	1.001150
587.554428	1.001207
587.907124	1.000477
588.259765	1.000548
588.612352	1.000911
588.964884	1.000761
589.317362	1.000665
589.669786	1.001428
590.022155	1.000593
590.374470	1.000475
590.726731	1.000122
591.078937	1.000696
591.431090	1.000668
591.783188	1.000508
592.135232	1.001060
592.487222	1.000406
592.839157	1.000197
593.191038	1.000602
593.542866	1.000971
593.894639	1.000607
594.246358	1.000876
594.598022	1.001397
594.949633	1.000474
595.301190	1.000457
595.652692	1.000340
596.004141	1.000577
596.355535	1.000264
596.706876	1.000238
597.058162	1.000509
597.409395	1.001521
597.760573	1.000326
598.111698	1.000684
598.462768	1.000188
598.813785	0.999908
599.164748	1.000653
599.515657	1.000400
599.866511	1.001136
600.217312	1.001980
600.568060	1.000458
600.918753	1.001188
601.269392	1.000693
601.619978	1.000439
601.970510	1.000964
602.320988	1.000636
602.671412	1.000432
603.021783	1.001211
603.372100	1.001397
603.722363	1.001747
604.072572	1.000644
604.422728	1.000805
604.772830	1.000280
605.122878	1.000844
605.472872	1.001506
605.822813	1.000111
606.172701	1.000410
606.522534	1.001031
606.872314	1.001749
607.222041	1.000143
607.571714	1.000639
607.921333	1.000948
608.270899	1.001096
608.620411	1.000431
608.969870	1.001897
609.319276	1.001135
609.668627	1.001752
610.017926	1.000211
610.367171	1.000820
610.716362	1.000969
611.065500	1.000192
611.414585	1.000578
611.763616	1.000015
612.112594	1.000558
612.461518	0.999923
612.810389	1.000782
613.159207	1.000688
613.507971	0.999936
613.856682	1.001230
614.205340	1.000066
614.553945	1.001401
614.902496	1.001030
615.250994	1.000835
615.599439	1.001298
615.947830	1.000121
616.296169	1.000910
616.644454	1.000849
616.992686	1.001272
617.340864	1.001015
617.688990	1.000550
618.037063	1.001481
618.385082	1.000120
618.733048	1.000535
619.080961	1.000689
619.428821	1.001360
619.776628	1.000227
620.124382	1.001601
620.472083	1.000767
620.819731	1.001637
621.167326	1.001364
621.514868	1.000554
621.862357	1.001094
622.209793	1.001279
622.557176	1.000614
622.904506	1.000153
623.251783	1.000224
623.599007	1.000692
623.946179	1.000081
624.293297	1.001344
624.640363	1.001341
624.987376	1.000360
625.334336	1.000628
625.681243	1.000966
626.028097	1.001137
626.374899	1.000936
626.721647	1.001605
627.068343	1.000813
627.414987	1.000716
627.761577	0.999828
628.108115	1.000589
628.454600	1.000810
628.801032	1.001103
629.147412	1.000723
629.493739	1.001336
629.840014	1.000696
630.186236	1.000500
630.532405	1.000699
630.878521	0.999856
631.224585	1.000394
631.570597	0.999439
631.916556	1.000264
632.262462	0.999291
632.608316	1.001091
632.954117	1.000755
633.299866	1.000815
633.645562	1.000124
633.991206	1.000631
634.336797	1.001166
634.682336	1.002041
635.027823	1.001193
635.373257	1.000667
635.718639	1.001441
636.063968	0.999925
636.409245	1.000820
636.754470	1.001008
637.099642	1.001011
637.444762	1.000890
637.789829	1.000126
638.134845	0.999976
638.479808	1.000714
638.824719	1.000491
639.169577	1.000800
639.514383	1.000675
639.859137	1.000945
640.203839	1.000828
640.548489	1.000282
640.893086	0.999505
641.237632	1.001305
641.582125	0.999723
641.926566	1.001057
642.270955	1.001128
642.615292	1.000230
642.959576	1.000335
643.303809	1.000766
643.647990	1.001307
643.992118	1.000800
644.336195	1.000277
644.680219	1.000723
645.024192	1.000815
645.368112	1.000159
645.711981	1.000646
646.055797	1.000702
646.399562	0.999329
646.743274	1.000835
647.086935	0.999902
647.430544	0.999913
647.774101	1.000211
648.117606	1.001191
648.461059	1.000464
648.804460	1.000153
649.147810	0.999872
649.491108	0.999902
649.834354	0.999277
650.177548	1.000806
650.520690	1.000137
650.863781	0.999217
651.206820	1.000340
651.549807	0.999853
651.892742	1.001041
652.235626	0.999927
652.578458	1.000540
652.921238	1.000546
653.263967	1.000154
653.606644	1.000548
653.949269	1.000613
654.291843	0.999734
654.634365	1.000524
654.976836	1.000239
655.319255	1.001074
655.661622	1.001299
656.003938	1.000220
656.346203	0.999656
656.688416	1.001328
657.030577	0.999869
657.372687	1.000372
657.714746	0.999891
658.056753	0.999806
658.398708	1.000393
658.740612	1.001826
659.082465	1.000532
659.424266	1.000222
659.766016	0.999177
660.107715	1.000910
660.449362	1.000401
660.790958	0.999611
661.132503	1.000797
661.473996	0.999624
661.815438	0.999458
662.156829	1.000118
662.498168	1.001239
662.839456	0.999349
663.180693	0.999931
663.521879	0.999836
663.863013	1.000815
664.204097	0.999888
664.545129	1.000109
664.886110	1.000317
665.227040	1.000045
665.567918	1.000754
665.908746	0.999280
666.249522	1.000290
666.590248	1.000145
666.930922	0.999945
667.271545	1.000866
667.612118	1.000314
667.952639	1.000819
668.293109	0.999839
668.633528	1.000063
668.973896	1.000326
669.314213	0.998942
669.654480	1.000441
669.994695	0.999357
670.334859	0.999937
670.674973	0.999895
671.015035	1.000202
671.355047	0.999899
671.695008	0.999537
672.034918	0.999828
672.374777	0.998991
672.714585	1.000425
673.054342	1.000139
673.394049	0.999133
673.733705	0.999501
674.073310	0.999661
674.412864	0.999248
674.752368	0.999877
675.091820	1.001000
675.431223	0.999689
675.770574	1.000025
676.109875	1.000162
676.449125	0.999049
676.788324	0.999503
677.127473	1.000444
677.466571	1.000461
677.805619	1.000022
678.144616	1.000220
678.483562	1.000740
678.822458	0.999879
679.161303	0.999674
679.500098	1.000244
679.838842	1.000550
680.177535	0.999409
680.516179	0.999448
680.854771	0.999698
681.193314	1.000040
681.531805	0.999700
681.870247	0.999575
682.208638	0.999906
682.546978	0.999654
682.885268	1.000197
683.223508	0.999266
683.561697	0.999230
683.899836	0.999549
684.237925	0.999717
684.575963	0.999917
684.913951	0.999897
685.251889	0.999283
685.589776	0.999884
685.927614	1.000233
686.265401	0.999295
686.603137	0.999249
686.940824	1.000160
687.278460	1.000207
687.616046	1.000206
687.953582	1.000061
688.291068	0.999516
688.628504	0.999594
