Dividing Wavelength (nm)	Counts (n)	Blue Motor Position (mm): 49.300000	Red Motor Position (mm): 0.000000	
326.493990	0.999837
326.888308	0.999837
327.282561	0.999837
327.676750	1.001525
328.070874	1.000176
328.464933	1.000025
328.858929	1.001435
329.252859	0.999288
329.646726	0.998536
330.040528	1.000198
330.434265	1.001056
330.827938	0.999358
331.221547	1.000526
331.615091	1.001053
332.008571	1.001464
332.401986	0.999616
332.795338	0.998774
333.188625	1.000851
333.581847	0.998925
333.975006	1.000348
334.368100	1.000115
334.761129	0.999317
335.154095	1.000050
335.546996	1.000021
335.939833	1.000165
336.332606	0.999595
336.725315	0.999144
337.117960	1.000808
337.510540	0.999965
337.903056	1.000838
338.295508	1.001317
338.687896	1.001095
339.080220	1.000139
339.472480	1.000189
339.864676	1.001941
340.256807	0.998558
340.648875	1.000825
341.040879	1.000612
341.432818	1.000416
341.824694	1.000386
342.216506	1.000440
342.608253	0.999870
342.999937	0.999605
343.391557	1.000042
343.783113	1.001908
344.174605	1.000033
344.566033	0.999084
344.957397	1.000886
345.348697	1.000900
345.739934	1.001226
346.131106	0.999800
346.522215	0.999947
346.913260	1.000493
347.304241	0.999161
347.695159	1.000342
348.086012	1.000621
348.476802	0.999782
348.867528	0.999757
349.258191	0.999883
349.648789	0.998943
350.039324	1.001534
350.429796	1.000169
350.820203	0.998908
351.210548	1.000601
351.600828	1.000320
351.991045	1.001179
352.381198	1.000576
352.771288	1.000662
353.161314	1.001180
353.551276	1.000787
353.941175	0.999044
354.331010	1.000976
354.720782	0.999480
355.110490	0.999715
355.500135	1.000729
355.889717	0.999988
356.279235	0.999460
356.668689	1.000229
357.058080	0.999757
357.447408	1.000245
357.836672	1.000885
358.225873	1.000480
358.615010	1.000007
359.004084	0.999062
359.393095	1.000248
359.782043	0.999733
360.170927	1.001123
360.559748	1.000427
360.948505	0.999221
361.337199	0.999038
361.725830	0.999515
362.114398	1.000414
362.502903	0.999565
362.891344	0.998454
363.279722	0.999500
363.668037	1.000297
364.056289	1.000117
364.444478	1.001482
364.832603	0.999293
365.220665	0.999901
365.608665	1.000442
365.996601	1.000153
366.384474	0.998772
366.772284	1.000731
367.160031	0.999642
367.547715	0.999949
367.935336	0.999502
368.322893	0.999151
368.710388	0.997846
369.097820	0.998325
369.485189	0.996898
369.872495	0.997511
370.259738	0.996972
370.646918	0.995629
371.034035	0.997235
371.421090	0.996532
371.808081	0.994014
372.195010	0.995642
372.581875	0.994228
372.968678	0.995094
373.355418	0.994766
373.742096	0.993270
374.128710	0.993804
374.515262	0.993918
374.901751	0.993869
375.288177	0.992458
375.674540	0.993706
376.060841	0.993635
376.447079	0.992041
376.833254	0.993545
377.219367	0.993695
377.605417	0.993551
377.991404	0.993146
378.377329	0.993607
378.763191	0.992899
379.148991	0.994179
379.534727	0.993745
379.920402	0.993461
380.306013	0.993902
380.691563	0.994883
381.077049	0.994945
381.462474	0.996836
381.847835	0.996196
382.233134	0.996571
382.618371	0.997131
383.003545	0.996694
383.388657	0.996692
383.773706	0.997960
384.158693	0.997449
384.543618	0.999564
384.928480	0.998500
385.313280	0.997976
385.698017	0.998708
386.082692	0.997911
386.467305	0.997635
386.851856	0.999559
387.236344	0.999066
387.620770	1.001612
388.005133	1.000108
388.389435	0.999529
388.773674	0.999262
389.157851	1.000742
389.541965	1.001130
389.926018	1.000055
390.310008	1.000300
390.693936	1.001426
391.077802	1.001590
391.461606	0.999218
391.845348	1.000752
392.229027	0.999411
392.612645	1.000627
392.996200	1.001185
393.379694	0.999966
393.763125	1.000762
394.146494	1.000058
394.529801	1.000825
394.913047	0.999958
395.296230	1.000033
395.679351	1.000586
396.062410	1.000798
396.445408	1.001637
396.828343	1.000770
397.211217	0.999963
397.594028	0.999587
397.976778	1.000866
398.359466	1.000359
398.742092	1.000724
399.124656	0.999685
399.507158	0.999466
399.889598	1.001457
400.271977	0.999963
400.654294	1.000206
401.036549	1.001382
401.418742	1.000643
401.800874	1.001152
402.182944	0.999503
402.564952	1.000413
402.946898	1.000620
403.328783	1.001323
403.710606	0.999917
404.092367	1.000673
404.474067	1.001252
404.855705	1.002417
405.237282	1.001357
405.618797	1.000679
406.000250	1.000163
406.381642	1.000440
406.762972	1.001384
407.144240	1.001034
407.525447	0.999731
407.906593	1.000144
408.287677	1.000040
408.668700	1.001626
409.049661	1.001531
409.430560	1.000266
409.811399	1.000112
410.192176	1.001020
410.572891	1.000753
410.953545	1.000341
411.334138	1.000784
411.714669	1.000413
412.095139	1.001008
412.475547	1.000926
412.855894	1.000040
413.236180	1.000651
413.616405	1.000232
413.996568	1.001145
414.376670	1.000950
414.756711	1.000585
415.136691	1.001413
415.516609	1.000567
415.896466	1.001198
416.276262	1.000631
416.655997	1.001004
417.035670	1.000356
417.415283	1.000324
417.794834	1.000942
418.174324	1.001829
418.553753	0.999753
418.933121	1.000794
419.312428	1.001109
419.691674	1.000840
420.070859	1.001129
420.449983	1.000845
420.829045	0.999774
421.208047	1.001100
421.586988	1.000524
421.965867	1.001298
422.344686	1.000415
422.723444	1.000363
423.102141	1.000812
423.480777	0.999732
423.859352	1.000558
424.237866	1.000385
424.616319	1.001587
424.994712	1.001258
425.373044	1.000347
425.751314	1.000370
426.129524	1.001263
426.507673	1.000202
426.885762	1.000174
427.263789	1.000349
427.641756	1.000770
428.019662	1.001528
428.397508	1.000893
428.775292	1.000852
429.153016	1.001085
429.530679	1.001050
429.908282	1.000524
430.285824	1.000870
430.663305	1.000784
431.040726	1.000575
431.418086	1.000632
431.795385	1.001121
432.172624	1.001560
432.549802	1.001302
432.926920	1.001214
433.303977	1.001205
433.680974	1.001584
434.057910	1.001188
434.434786	0.999912
434.811601	1.001171
435.188355	1.001910
435.565050	1.001314
435.941683	1.000514
436.318257	1.000140
436.694770	1.001235
437.071222	1.001092
437.447614	1.000743
437.823946	1.001823
438.200218	1.000786
438.576429	1.000081
438.952580	1.001018
439.328670	1.000129
439.704700	1.000918
440.080670	1.001956
440.456580	1.001176
440.832429	1.001021
441.208218	1.000604
441.583947	1.001037
441.959616	1.000434
442.335224	1.001522
442.710773	1.001894
443.086261	1.001406
443.461689	1.000403
443.837057	1.001027
444.212365	1.001140
444.587612	1.001819
444.962800	1.001458
445.337927	1.002067
445.712995	1.001053
446.088002	1.000434
446.462949	1.000469
446.837837	1.002493
447.212664	1.001040
447.587431	1.001135
447.962139	1.000523
448.336786	0.999779
448.711374	1.000582
449.085901	1.001969
449.460369	1.002202
449.834776	1.000830
450.209124	1.001030
450.583412	1.001426
450.957640	1.000790
451.331808	1.001519
451.705917	1.000958
452.079965	1.000402
452.453954	1.001459
452.827883	1.002178
453.201752	1.001932
453.575562	1.001086
453.949311	1.002084
454.323001	1.001009
454.696632	1.000884
455.070202	1.000952
455.443713	1.000953
455.817164	1.001392
456.190556	1.000792
456.563888	1.001831
456.937160	1.001156
457.310373	1.000359
457.683526	1.000656
458.056619	1.001557
458.429653	1.001153
458.802628	1.000933
459.175542	1.000693
459.548398	1.000437
459.921194	1.001422
460.293930	1.001918
460.666607	1.000735
461.039224	1.000885
461.411782	1.000496
461.784280	1.000498
462.156719	1.001787
462.529099	1.001281
462.901419	1.001587
463.273680	1.000311
463.645882	1.001609
464.018024	1.001697
464.390106	1.000822
464.762130	1.001075
465.134094	1.000882
465.505999	1.001350
465.877845	1.000464
466.249631	1.000709
466.621358	0.999945
466.993026	1.001278
467.364634	1.001243
467.736184	1.001088
468.107674	1.001446
468.479105	1.001249
468.850477	1.001558
469.221790	1.001952
469.593043	1.001187
469.964238	1.001246
470.335373	1.000699
470.706449	1.001352
471.077467	1.001186
471.448425	1.001331
471.819324	1.001322
472.190164	1.001014
472.560945	1.001645
472.931667	1.001503
473.302330	1.001664
473.672934	1.001436
474.043479	1.001263
474.413965	1.001491
474.784393	1.001445
475.154761	1.001421
475.525070	1.001399
475.895321	1.001546
476.265513	1.001529
476.635645	1.001715
477.005719	1.001286
477.375734	1.001448
477.745691	1.001096
478.115588	1.001008
478.485427	1.000837
478.855207	1.001420
479.224928	1.000725
479.594591	1.001190
479.964194	1.001362
480.333739	1.001135
480.703226	1.001026
481.072653	1.000805
481.442022	1.001632
481.811333	1.001435
482.180584	1.001340
482.549777	1.001091
482.918912	1.001463
483.287988	1.001372
483.657005	1.000920
484.025964	1.001237
484.394864	1.000921
484.763706	1.001110
485.132489	1.001235
485.501213	1.002050
485.869879	1.001446
486.238487	1.000474
486.607036	1.001914
486.975527	1.001541
487.343959	1.000665
487.712333	1.001453
488.080648	1.000445
488.448905	1.001634
488.817104	1.000643
489.185244	1.000927
489.553326	1.001686
489.921350	1.001557
490.289315	1.001402
490.657222	1.000894
491.025070	1.001419
491.392861	1.001767
491.760593	1.001564
492.128267	1.001502
492.495883	1.000791
492.863440	1.001696
493.230939	1.001504
493.598380	1.001689
493.965763	1.000877
494.333088	1.000135
494.700354	1.000880
495.067563	1.001226
495.434713	1.001485
495.801805	1.000951
496.168839	1.001503
496.535815	1.002292
496.902733	1.000706
497.269593	1.001084
497.636395	1.001229
498.003139	1.001113
498.369825	1.001798
498.736453	1.001206
499.103023	1.001451
499.469535	1.001245
499.835989	1.001386
500.202385	1.000942
500.568723	1.001081
500.935003	1.001058
501.301226	1.000893
501.667390	1.001180
502.033497	1.001327
502.399546	1.001662
502.765537	1.001227
503.131470	1.002017
503.497345	1.001978
503.863163	1.001364
504.228923	1.001120
504.594625	1.001003
504.960269	1.001233
505.325856	1.002141
505.691385	1.001680
506.056856	1.001297
506.422270	1.001215
506.787625	1.001203
507.152924	1.001610
507.518164	1.001401
507.883347	1.000699
508.248472	1.000856
508.613540	1.001024
508.978550	1.001051
509.343503	1.000984
509.708398	1.001290
510.073236	1.001722
510.438016	1.001284
510.802738	1.000730
511.167403	1.001397
511.532010	1.001714
511.896561	1.001671
512.261053	1.001342
512.625488	1.000896
512.989866	1.001551
513.354186	1.001171
513.718449	1.001052
514.082655	1.001606
514.446803	1.001176
514.810894	1.001961
515.174927	1.001754
515.538904	1.001692
515.902822	1.001338
516.266684	1.001808
516.630488	1.002084
516.994235	1.001532
517.357925	1.001943
517.721558	1.000708
518.085133	1.000552
518.448651	1.001235
518.812112	1.001703
519.175516	1.001662
519.538863	1.001289
519.902152	1.001066
520.265385	1.001350
520.628560	1.000296
520.991678	1.001448
521.354739	1.001934
521.717743	1.001397
522.080690	1.000636
522.443580	1.001702
522.806413	1.001036
523.169189	1.002266
523.531908	1.001021
523.894569	1.001187
524.257174	1.001331
524.619722	1.001128
524.982213	1.001778
525.344647	1.000768
525.707025	1.001229
526.069345	1.001582
526.431608	1.001273
526.793815	1.001520
527.155964	1.001631
527.518057	1.001743
527.880093	1.001089
528.242072	1.001209
528.603995	1.000846
528.965860	1.001431
529.327669	1.001241
529.689421	1.001136
530.051117	1.001654
530.412755	1.001657
530.774337	1.001313
531.135862	1.001933
531.497331	1.001007
531.858743	1.001624
532.220098	1.001091
532.581396	1.001958
532.942638	1.001188
533.303824	1.001518
533.664953	1.001070
534.026025	1.001993
534.387040	1.001188
534.747999	1.001171
535.108902	1.001517
535.469748	1.001820
535.830537	1.001893
536.191270	1.001255
536.551947	1.000893
536.912567	1.002239
537.273131	1.001463
537.633638	1.001470
537.994089	1.001280
538.354483	1.001502
538.714821	1.001915
539.075103	1.001253
539.435328	1.001507
539.795497	1.001837
540.155609	1.001853
540.515665	1.001597
540.875665	1.001781
541.235609	1.001760
541.595496	1.001146
541.955328	1.001834
542.315102	1.001394
542.674821	1.001254
543.034483	1.001124
543.394090	1.000928
543.753640	1.001479
544.113134	1.001229
544.472571	1.001816
544.831953	1.001459
545.191278	1.000842
545.550548	1.000646
545.909761	1.000911
546.268918	1.001842
546.628019	1.001630
546.987064	1.000878
547.346053	1.001139
547.704986	1.001720
548.063863	1.000990
548.422684	1.001783
548.781449	1.001770
549.140158	1.001747
549.498811	1.000593
549.857408	1.000917
550.215949	1.001047
550.574434	1.001146
550.932864	1.001534
551.291237	1.000708
551.649555	1.001591
552.007817	1.001595
552.366022	1.001937
552.724173	1.001257
553.082267	1.001202
553.440305	1.000842
553.798288	1.000842
554.156215	1.001394
554.514086	1.001457
554.871902	1.000861
555.229661	1.001204
555.587365	1.001520
555.945014	1.001928
556.302606	1.001234
556.660143	1.001773
557.017625	1.001936
557.375050	1.000626
557.732421	1.000828
558.089735	1.001203
558.446994	1.000430
558.804197	1.001331
559.161345	1.000621
559.518437	1.001276
559.875474	1.001250
560.232455	1.001924
560.589381	1.001996
560.946251	1.001580
561.303065	1.001342
561.659825	1.000552
562.016528	1.001889
562.373177	1.000826
562.729770	1.001232
563.086307	1.000924
563.442789	1.001631
563.799216	1.000857
564.155587	1.001662
564.511904	1.001496
564.868164	1.000636
565.224370	1.001181
565.580520	1.001870
565.936615	1.001538
566.292654	1.000735
566.648638	1.001724
567.004567	1.001439
567.360441	1.001982
567.716260	1.001106
568.072023	1.001011
568.427732	1.000785
568.783385	1.001496
569.138982	1.001321
569.494525	1.000946
569.850013	1.001440
570.205445	1.001117
570.560823	1.001259
570.916145	1.001267
571.271412	1.001138
571.626625	1.001313
571.981782	1.001322
572.336884	1.001745
572.691931	1.000849
573.046923	1.001813
573.401860	1.000865
573.756743	1.001305
574.111570	1.001416
574.466342	1.002272
574.821059	1.001469
575.175722	1.001830
575.530330	1.001430
575.884882	1.001141
576.239380	1.001057
576.593823	1.000257
576.948211	1.001833
577.302544	1.000777
577.656823	1.001537
578.011047	1.001071
578.365216	1.001591
578.719330	1.001407
579.073389	0.999715
579.427394	1.000720
579.781344	1.001282
580.135239	1.000766
580.489080	1.001389
580.842866	1.001484
581.196597	1.001180
581.550273	1.000924
581.903895	1.001025
582.257463	1.001243
582.610975	1.001136
582.964434	1.001112
583.317837	1.001203
583.671186	1.001792
584.024481	1.000629
584.377721	1.000411
584.730906	1.001179
585.084037	1.001722
585.437113	1.001651
585.790135	1.000939
586.143103	1.001094
586.496016	1.000953
586.848874	1.001393
587.201679	1.001305
587.554428	1.000958
587.907124	1.000715
588.259765	1.001646
588.612352	1.001808
588.964884	1.001279
589.317362	1.000977
589.669786	1.000768
590.022155	1.000374
590.374470	1.000235
590.726731	1.000763
591.078937	1.001286
591.431090	1.001795
591.783188	1.000744
592.135232	1.001410
592.487222	1.001029
592.839157	1.001332
593.191038	1.001698
593.542866	1.001348
593.894639	0.999749
594.246358	1.001330
594.598022	1.000992
594.949633	1.001606
595.301190	1.000868
595.652692	1.000904
596.004141	1.001166
596.355535	1.001173
596.706876	1.001376
597.058162	1.001044
597.409395	1.001246
597.760573	1.001026
598.111698	1.000977
598.462768	1.000139
598.813785	1.000153
599.164748	1.000568
599.515657	1.000883
599.866511	1.000874
600.217312	1.001245
600.568060	1.000476
600.918753	1.000921
601.269392	1.001737
601.619978	1.001890
601.970510	1.000970
602.320988	1.001272
602.671412	1.000349
603.021783	1.000786
603.372100	1.001788
603.722363	1.001601
604.072572	1.001373
604.422728	1.000841
604.772830	1.000761
605.122878	1.001242
605.472872	1.001128
605.822813	1.000453
606.172701	1.001449
606.522534	1.000685
606.872314	1.001817
607.222041	1.001150
607.571714	1.000936
607.921333	1.001238
608.270899	1.000226
608.620411	1.001219
608.969870	1.001225
609.319276	1.000936
609.668627	1.001953
610.017926	1.001277
610.367171	1.000981
610.716362	1.000819
611.065500	1.001007
611.414585	1.001019
611.763616	0.999567
612.112594	1.001211
612.461518	1.000471
612.810389	1.002032
613.159207	1.000378
613.507971	1.000858
613.856682	1.002131
614.205340	1.000261
614.553945	1.000141
614.902496	1.000398
615.250994	1.000905
615.599439	1.001235
615.947830	1.000657
616.296169	1.000935
616.644454	1.001411
616.992686	1.001212
617.340864	1.001972
617.688990	1.001631
618.037063	1.002285
618.385082	1.000239
618.733048	0.999839
619.080961	0.999817
619.428821	1.001558
619.776628	1.000420
620.124382	1.001253
620.472083	1.000647
620.819731	1.001329
621.167326	1.001550
621.514868	1.001836
621.862357	1.000745
622.209793	1.001314
622.557176	1.000632
622.904506	1.000455
623.251783	1.001132
623.599007	1.000871
623.946179	1.000613
624.293297	1.001944
624.640363	1.001870
624.987376	1.000518
625.334336	1.000745
625.681243	1.001006
626.028097	1.001209
626.374899	1.000423
626.721647	1.001045
627.068343	1.000182
627.414987	1.000429
627.761577	1.000454
628.108115	1.000783
628.454600	1.000228
628.801032	1.000516
629.147412	1.001303
629.493739	1.002093
629.840014	1.000551
630.186236	1.000070
630.532405	1.000562
630.878521	1.000381
631.224585	1.000993
631.570597	1.000814
631.916556	1.000609
632.262462	1.000514
632.608316	1.000999
632.954117	1.000313
633.299866	1.000684
633.645562	1.001102
633.991206	1.000664
634.336797	1.000041
634.682336	1.000629
635.027823	1.000783
635.373257	1.000555
635.718639	1.001369
636.063968	1.001128
636.409245	1.001065
636.754470	1.000804
637.099642	1.000902
637.444762	1.001441
637.789829	1.000510
638.134845	1.000940
638.479808	1.001048
638.824719	1.000764
639.169577	1.000550
639.514383	1.001356
639.859137	1.001142
640.203839	1.000102
640.548489	1.001116
640.893086	1.001029
641.237632	1.000975
641.582125	1.000982
641.926566	1.001746
642.270955	1.001310
642.615292	0.999927
642.959576	1.000358
643.303809	1.001364
643.647990	1.000374
643.992118	1.001298
644.336195	1.000478
644.680219	1.000239
645.024192	1.000541
645.368112	1.000269
645.711981	0.999968
646.055797	1.001453
646.399562	0.999886
646.743274	1.001335
647.086935	1.000926
647.430544	1.000211
647.774101	1.000069
648.117606	1.001242
648.461059	1.000686
648.804460	1.000984
649.147810	1.000805
649.491108	0.999599
649.834354	1.000816
650.177548	1.000556
650.520690	1.000232
650.863781	1.001100
651.206820	1.001007
651.549807	1.001067
651.892742	1.001119
652.235626	1.000424
652.578458	1.001184
652.921238	1.001482
653.263967	1.001737
653.606644	1.000781
653.949269	1.001020
654.291843	1.000497
654.634365	1.001367
654.976836	0.999903
655.319255	1.001488
655.661622	1.000336
656.003938	1.000375
656.346203	1.001512
656.688416	1.001317
657.030577	1.000388
657.372687	1.001132
657.714746	1.000841
658.056753	1.000129
658.398708	1.000160
658.740612	1.001356
659.082465	1.000716
659.424266	1.001385
659.766016	1.000912
660.107715	1.001265
660.449362	1.000945
660.790958	1.000077
661.132503	1.001967
661.473996	1.000458
661.815438	1.000689
662.156829	1.000970
662.498168	1.001320
662.839456	0.999521
663.180693	1.001830
663.521879	1.000720
663.863013	1.000622
664.204097	0.999914
664.545129	1.000120
664.886110	1.000695
665.227040	1.000293
665.567918	1.000786
665.908746	1.000129
666.249522	1.000148
666.590248	1.001209
666.930922	1.000295
667.271545	1.001330
667.612118	1.001033
667.952639	1.000243
668.293109	1.000498
668.633528	1.000326
668.973896	1.001320
669.314213	1.000413
669.654480	1.000440
669.994695	0.999756
670.334859	1.001128
670.674973	1.000883
671.015035	1.000329
671.355047	1.000571
671.695008	1.000397
672.034918	1.000361
672.374777	1.000280
672.714585	0.999909
673.054342	1.000872
673.394049	1.001023
673.733705	1.000262
674.073310	1.000600
674.412864	0.999974
674.752368	1.000266
675.091820	1.001357
675.431223	1.001054
675.770574	1.000443
676.109875	1.000870
676.449125	1.000612
676.788324	1.000545
677.127473	1.000604
677.466571	1.000602
677.805619	1.001010
678.144616	1.000584
678.483562	1.001024
678.822458	1.001588
679.161303	1.000262
679.500098	1.001116
679.838842	1.001514
680.177535	1.000931
680.516179	0.999176
680.854771	1.000026
681.193314	1.000834
681.531805	1.000638
681.870247	1.000488
682.208638	1.000980
682.546978	0.999307
682.885268	1.000529
683.223508	0.999346
683.561697	1.000541
683.899836	1.000438
684.237925	1.000091
684.575963	1.000637
684.913951	1.000573
685.251889	1.000268
685.589776	1.000151
685.927614	1.000150
686.265401	1.000105
686.603137	0.999765
686.940824	1.000692
687.278460	1.000847
687.616046	1.000554
687.953582	0.999795
688.291068	1.000887
688.628504	0.999844
