Dividing Wavelength (nm)	Counts (n)	Blue Motor Position (mm): 48.600000	Red Motor Position (mm): 0.000000	
326.493990	0.999638
326.888308	0.999638
327.282561	0.999638
327.676750	0.998952
328.070874	1.000378
328.464933	1.000192
328.858929	1.000947
329.252859	1.000199
329.646726	0.999902
330.040528	0.999251
330.434265	0.999691
330.827938	0.998552
331.221547	0.999665
331.615091	1.001070
332.008571	1.000634
332.401986	0.998532
332.795338	0.999735
333.188625	1.000305
333.581847	1.000294
333.975006	0.999439
334.368100	1.001135
334.761129	0.999062
335.154095	1.000095
335.546996	1.000341
335.939833	0.999007
336.332606	1.000688
336.725315	0.999293
337.117960	1.000966
337.510540	0.999337
337.903056	1.001013
338.295508	1.000145
338.687896	0.999608
339.080220	0.999631
339.472480	0.999713
339.864676	0.999227
340.256807	0.998410
340.648875	1.000057
341.040879	1.000503
341.432818	1.000272
341.824694	1.000242
342.216506	1.000066
342.608253	1.000478
342.999937	0.999520
343.391557	1.000030
343.783113	1.000416
344.174605	0.999180
344.566033	0.999086
344.957397	1.001013
345.348697	1.001171
345.739934	0.999973
346.131106	0.999764
346.522215	0.999406
346.913260	1.000347
347.304241	0.999778
347.695159	1.000441
348.086012	0.999204
348.476802	1.000186
348.867528	0.999170
349.258191	1.001132
349.648789	1.000599
350.039324	0.999304
350.429796	1.000149
350.820203	0.998283
351.210548	0.999412
351.600828	0.999932
351.991045	1.000186
352.381198	1.000808
352.771288	0.999201
353.161314	0.999244
353.551276	0.998856
353.941175	0.997675
354.331010	1.000030
354.720782	0.999713
355.110490	0.999653
355.500135	1.000433
355.889717	0.998956
356.279235	0.998433
356.668689	1.001084
357.058080	1.000441
357.447408	0.998410
357.836672	0.999792
358.225873	1.000121
358.615010	0.999191
359.004084	0.998435
359.393095	0.999967
359.782043	0.999149
360.170927	0.999137
360.559748	0.999461
360.948505	1.000895
361.337199	0.999862
361.725830	1.000605
362.114398	0.999785
362.502903	1.000012
362.891344	0.998409
363.279722	0.998629
363.668037	1.000241
364.056289	0.999674
364.444478	1.000683
364.832603	0.999249
365.220665	0.999988
365.608665	0.999863
365.996601	0.999425
366.384474	0.998667
366.772284	0.999779
367.160031	0.997741
367.547715	0.999487
367.935336	0.997055
368.322893	0.998542
368.710388	0.996646
369.097820	0.996414
369.485189	0.993938
369.872495	0.994371
370.259738	0.992716
370.646918	0.991325
371.034035	0.992004
371.421090	0.990699
371.808081	0.988000
372.195010	0.988314
372.581875	0.987027
372.968678	0.986489
373.355418	0.985841
373.742096	0.984358
374.128710	0.984385
374.515262	0.985155
374.901751	0.983244
375.288177	0.983155
375.674540	0.983352
376.060841	0.981910
376.447079	0.981673
376.833254	0.981251
377.219367	0.982491
377.605417	0.981986
377.991404	0.982458
378.377329	0.982386
378.763191	0.982314
379.148991	0.982711
379.534727	0.982834
379.920402	0.982728
380.306013	0.985175
380.691563	0.986022
381.077049	0.984683
381.462474	0.986315
381.847835	0.986391
382.233134	0.988376
382.618371	0.990188
383.003545	0.989642
383.388657	0.989151
383.773706	0.990279
384.158693	0.991323
384.543618	0.993758
384.928480	0.993159
385.313280	0.994831
385.698017	0.995201
386.082692	0.994817
386.467305	0.995697
386.851856	0.997493
387.236344	0.996810
387.620770	0.997270
388.005133	0.998676
388.389435	0.997283
388.773674	0.997597
389.157851	0.998571
389.541965	0.998554
389.926018	1.000081
390.310008	0.999230
390.693936	1.000027
391.077802	0.999371
391.461606	0.999601
391.845348	1.000325
392.229027	0.999748
392.612645	0.999795
392.996200	0.999510
393.379694	0.998877
393.763125	1.000923
394.146494	0.999304
394.529801	1.000727
394.913047	0.998265
395.296230	0.999272
395.679351	0.999576
396.062410	0.999859
396.445408	1.000090
396.828343	1.000845
397.211217	0.999509
397.594028	1.000096
397.976778	1.000171
398.359466	0.999956
398.742092	1.000384
399.124656	0.999022
399.507158	0.999053
399.889598	1.000583
400.271977	1.001325
400.654294	1.000614
401.036549	1.000163
401.418742	1.000804
401.800874	1.000372
402.182944	0.999725
402.564952	1.000602
402.946898	0.999647
403.328783	1.000778
403.710606	0.999743
404.092367	1.000213
404.474067	1.000490
404.855705	1.001429
405.237282	1.001079
405.618797	1.000774
406.000250	1.000046
406.381642	0.999768
406.762972	1.000761
407.144240	1.000885
407.525447	0.998800
407.906593	0.999501
408.287677	0.999641
408.668700	1.000260
409.049661	0.999972
409.430560	1.001018
409.811399	0.999941
410.192176	0.999925
410.572891	0.999879
410.953545	0.999769
411.334138	1.000662
411.714669	0.999659
412.095139	1.000943
412.475547	1.000497
412.855894	1.000622
413.236180	1.000156
413.616405	0.999916
413.996568	1.000305
414.376670	1.000320
414.756711	1.000231
415.136691	1.000072
415.516609	1.000112
415.896466	1.000689
416.276262	0.999969
416.655997	1.000343
417.035670	1.000675
417.415283	1.000211
417.794834	1.000774
418.174324	1.000080
418.553753	0.999874
418.933121	1.000524
419.312428	1.001110
419.691674	1.000687
420.070859	1.000827
420.449983	1.000827
420.829045	1.000642
421.208047	1.001487
421.586988	0.999595
421.965867	0.999201
422.344686	1.000360
422.723444	1.000707
423.102141	1.000223
423.480777	0.999811
423.859352	0.999949
424.237866	1.000702
424.616319	1.000363
424.994712	1.000983
425.373044	1.000774
425.751314	1.000371
426.129524	1.001239
426.507673	0.999577
426.885762	1.000297
427.263789	0.999996
427.641756	1.000625
428.019662	1.000428
428.397508	1.001069
428.775292	1.000429
429.153016	1.000133
429.530679	1.000431
429.908282	1.001419
430.285824	0.999489
430.663305	1.000420
431.040726	1.000372
431.418086	1.000047
431.795385	1.001516
432.172624	1.001891
432.549802	1.000763
432.926920	1.000338
433.303977	0.999780
433.680974	1.000490
434.057910	1.000880
434.434786	1.000201
434.811601	1.000885
435.188355	1.000940
435.565050	1.000176
435.941683	0.999832
436.318257	1.000212
436.694770	1.000940
437.071222	1.001066
437.447614	1.000610
437.823946	1.000722
438.200218	1.000658
438.576429	1.000501
438.952580	1.000595
439.328670	0.999840
439.704700	0.999550
440.080670	1.000900
440.456580	1.000986
440.832429	1.000772
441.208218	1.000716
441.583947	1.000818
441.959616	0.999476
442.335224	1.000971
442.710773	1.001441
443.086261	1.001421
443.461689	1.000141
443.837057	1.000876
444.212365	1.000743
444.587612	1.000908
444.962800	1.000618
445.337927	1.001551
445.712995	1.000795
446.088002	1.000442
446.462949	1.000968
446.837837	1.002362
447.212664	1.000823
447.587431	1.000406
447.962139	1.000426
448.336786	1.000692
448.711374	1.000166
449.085901	1.001153
449.460369	1.001660
449.834776	1.001412
450.209124	1.000846
450.583412	1.001090
450.957640	1.000147
451.331808	1.001470
451.705917	1.000075
452.079965	1.000746
452.453954	1.001708
452.827883	1.000608
453.201752	1.001168
453.575562	1.000565
453.949311	1.000990
454.323001	1.000540
454.696632	1.000636
455.070202	1.000287
455.443713	1.000002
455.817164	1.000464
456.190556	1.001175
456.563888	1.001640
456.937160	1.000992
457.310373	1.000437
457.683526	1.000882
458.056619	1.001431
458.429653	1.000435
458.802628	1.000338
459.175542	1.001145
459.548398	1.000576
459.921194	1.001266
460.293930	1.001780
460.666607	1.001219
461.039224	1.001564
461.411782	1.001140
461.784280	1.000516
462.156719	1.001071
462.529099	1.001260
462.901419	1.000714
463.273680	0.999492
463.645882	1.000288
464.018024	1.001421
464.390106	1.001028
464.762130	1.001383
465.134094	1.001126
465.505999	1.001353
465.877845	1.000134
466.249631	1.000892
466.621358	1.000338
466.993026	1.000565
467.364634	1.000861
467.736184	1.001158
468.107674	1.001206
468.479105	1.001031
468.850477	1.000691
469.221790	1.000985
469.593043	1.000815
469.964238	1.000827
470.335373	1.000452
470.706449	1.000494
471.077467	1.001016
471.448425	1.001109
471.819324	1.000951
472.190164	1.000537
472.560945	1.000836
472.931667	1.000983
473.302330	1.001642
473.672934	1.001309
474.043479	1.000698
474.413965	1.001073
474.784393	1.000784
475.154761	1.000395
475.525070	1.001276
475.895321	1.000631
476.265513	1.001436
476.635645	1.001133
477.005719	1.000882
477.375734	1.000735
477.745691	1.000899
478.115588	1.000719
478.485427	1.001123
478.855207	1.001033
479.224928	1.001204
479.594591	1.000987
479.964194	1.001133
480.333739	1.001665
480.703226	1.000543
481.072653	1.000632
481.442022	1.000721
481.811333	1.001032
482.180584	1.000735
482.549777	1.001011
482.918912	1.000848
483.287988	1.000799
483.657005	1.000739
484.025964	1.000728
484.394864	1.000971
484.763706	1.000827
485.132489	1.001529
485.501213	1.000957
485.869879	1.000925
486.238487	1.000163
486.607036	1.001470
486.975527	1.000784
487.343959	1.000349
487.712333	1.000950
488.080648	1.000570
488.448905	1.001139
488.817104	1.000565
489.185244	1.000562
489.553326	1.000938
489.921350	1.000442
490.289315	1.001050
490.657222	1.000738
491.025070	1.001234
491.392861	1.001251
491.760593	1.000963
492.128267	1.000762
492.495883	1.000143
492.863440	1.001032
493.230939	1.001238
493.598380	1.000825
493.965763	1.000759
494.333088	1.000099
494.700354	1.000730
495.067563	1.000850
495.434713	1.001407
495.801805	1.001313
496.168839	1.000901
496.535815	1.000629
496.902733	1.000727
497.269593	1.000712
497.636395	1.000063
498.003139	1.000124
498.369825	1.001690
498.736453	1.000843
499.103023	1.000614
499.469535	1.000753
499.835989	1.001421
500.202385	1.001023
500.568723	1.000482
500.935003	1.000891
501.301226	1.000980
501.667390	1.000605
502.033497	1.001010
502.399546	1.000458
502.765537	1.001226
503.131470	1.000441
503.497345	1.000449
503.863163	1.001075
504.228923	1.000698
504.594625	1.001022
504.960269	1.000596
505.325856	1.001887
505.691385	1.000937
506.056856	1.000567
506.422270	1.000661
506.787625	1.000460
507.152924	1.001271
507.518164	1.000090
507.883347	1.000766
508.248472	1.000907
508.613540	1.000264
508.978550	1.001036
509.343503	1.000393
509.708398	1.001568
510.073236	1.001379
510.438016	1.000313
510.802738	1.000351
511.167403	1.000853
511.532010	1.001444
511.896561	1.001600
512.261053	1.000569
512.625488	1.000969
512.989866	1.000977
513.354186	1.000373
513.718449	1.001342
514.082655	1.000652
514.446803	1.000301
514.810894	1.001423
515.174927	1.001024
515.538904	1.001280
515.902822	1.001029
516.266684	1.001535
516.630488	1.000460
516.994235	1.000913
517.357925	1.001064
517.721558	1.001328
518.085133	1.000481
518.448651	1.001077
518.812112	1.001027
519.175516	1.000520
519.538863	1.000778
519.902152	1.001504
520.265385	1.000856
520.628560	1.000308
520.991678	1.000432
521.354739	1.001051
521.717743	1.000872
522.080690	1.000473
522.443580	1.000980
522.806413	1.000269
523.169189	1.001689
523.531908	1.000384
523.894569	1.000868
524.257174	1.001403
524.619722	1.000536
524.982213	1.000444
525.344647	1.000722
525.707025	1.000631
526.069345	1.000636
526.431608	1.000911
526.793815	1.001003
527.155964	1.001538
527.518057	1.001115
527.880093	1.000910
528.242072	1.000710
528.603995	1.000556
528.965860	1.001616
529.327669	1.001477
529.689421	1.000461
530.051117	1.001241
530.412755	1.000524
530.774337	1.001098
531.135862	1.001139
531.497331	1.000700
531.858743	1.001297
532.220098	1.000498
532.581396	1.001052
532.942638	1.001274
533.303824	1.001416
533.664953	1.000309
534.026025	1.002276
534.387040	1.000769
534.747999	1.000950
535.108902	1.000760
535.469748	1.001468
535.830537	1.000938
536.191270	1.001158
536.551947	1.000779
536.912567	1.000532
537.273131	1.001370
537.633638	1.001438
537.994089	1.001042
538.354483	1.001624
538.714821	1.000991
539.075103	1.001124
539.435328	1.001011
539.795497	1.001578
540.155609	1.000721
540.515665	1.001733
540.875665	1.000712
541.235609	1.001129
541.595496	1.000775
541.955328	1.001005
542.315102	1.001133
542.674821	1.001180
543.034483	1.001545
543.394090	1.000434
543.753640	1.000590
544.113134	1.000678
544.472571	1.000835
544.831953	1.000592
545.191278	1.000876
545.550548	1.000672
545.909761	1.000889
546.268918	1.001634
546.628019	1.001741
546.987064	1.000780
547.346053	1.000816
547.704986	1.001031
548.063863	1.000127
548.422684	1.001128
548.781449	1.001101
549.140158	1.001801
549.498811	1.001035
549.857408	1.000251
550.215949	0.999887
550.574434	1.001028
550.932864	1.000642
551.291237	1.001192
551.649555	1.001756
552.007817	1.000545
552.366022	1.001349
552.724173	1.001195
553.082267	1.001436
553.440305	1.000460
553.798288	1.000264
554.156215	1.000594
554.514086	1.000985
554.871902	1.001274
555.229661	1.000677
555.587365	1.000810
555.945014	1.001636
556.302606	1.000422
556.660143	1.001627
557.017625	1.000808
557.375050	1.000789
557.732421	1.001195
558.089735	0.999811
558.446994	1.001014
558.804197	1.000876
559.161345	1.000584
559.518437	1.000035
559.875474	1.001390
560.232455	1.001029
560.589381	1.001107
560.946251	1.001269
561.303065	1.000863
561.659825	1.000407
562.016528	1.001127
562.373177	1.000861
562.729770	1.000883
563.086307	1.000238
563.442789	1.001174
563.799216	1.001093
564.155587	1.001353
564.511904	1.001267
564.868164	1.000050
565.224370	1.000673
565.580520	1.000906
565.936615	1.000801
566.292654	1.000716
566.648638	1.001658
567.004567	1.000037
567.360441	1.001142
567.716260	1.001004
568.072023	1.000723
568.427732	1.000919
568.783385	1.000664
569.138982	1.000922
569.494525	1.000736
569.850013	1.001391
570.205445	1.001105
570.560823	1.000753
570.916145	1.000409
571.271412	1.001024
571.626625	1.001115
571.981782	1.000620
572.336884	1.000667
572.691931	1.000976
573.046923	1.001461
573.401860	1.000709
573.756743	1.000898
574.111570	1.000654
574.466342	1.001300
574.821059	1.000245
575.175722	1.001667
575.530330	1.000398
575.884882	1.001011
576.239380	1.001024
576.593823	1.000866
576.948211	1.001529
577.302544	1.001073
577.656823	1.001776
578.011047	1.000405
578.365216	1.001344
578.719330	1.000755
579.073389	0.999818
579.427394	1.000500
579.781344	1.000854
580.135239	1.000873
580.489080	1.000860
580.842866	1.001164
581.196597	1.000459
581.550273	1.000485
581.903895	1.001216
582.257463	1.001045
582.610975	1.000677
582.964434	1.000896
583.317837	1.001259
583.671186	1.001038
584.024481	1.000876
584.377721	1.000916
584.730906	1.000870
585.084037	1.001676
585.437113	1.001640
585.790135	1.001025
586.143103	1.000769
586.496016	1.000835
586.848874	1.001052
587.201679	1.000542
587.554428	1.000569
587.907124	1.001271
588.259765	1.001055
588.612352	1.001379
588.964884	1.001223
589.317362	1.000995
589.669786	1.000579
590.022155	1.000281
590.374470	1.000201
590.726731	1.000050
591.078937	1.001183
591.431090	1.000765
591.783188	1.000700
592.135232	1.000712
592.487222	1.000623
592.839157	1.000986
593.191038	1.000691
593.542866	1.000628
593.894639	0.999855
594.246358	1.000873
594.598022	1.001017
594.949633	1.001345
595.301190	1.000454
595.652692	1.000610
596.004141	1.000604
596.355535	0.999878
596.706876	1.001035
597.058162	1.000831
597.409395	1.000765
597.760573	1.000502
598.111698	1.000984
598.462768	1.000721
598.813785	1.000605
599.164748	1.000404
599.515657	1.000577
599.866511	1.000802
600.217312	1.001690
600.568060	1.000446
600.918753	1.001552
601.269392	1.000617
601.619978	1.000443
601.970510	1.000754
602.320988	1.000864
602.671412	1.000698
603.021783	1.001191
603.372100	1.001759
603.722363	1.001103
604.072572	1.000779
604.422728	1.000504
604.772830	1.000686
605.122878	1.000867
605.472872	1.001221
605.822813	1.000453
606.172701	1.000151
606.522534	1.000760
606.872314	1.001094
607.222041	1.000834
607.571714	1.000927
607.921333	1.000715
608.270899	1.000513
608.620411	1.001101
608.969870	1.001283
609.319276	1.000045
609.668627	1.001730
610.017926	1.000436
610.367171	1.000903
610.716362	1.000754
611.065500	0.999964
611.414585	1.001154
611.763616	0.999922
612.112594	1.000816
612.461518	1.000014
612.810389	1.000781
613.159207	1.000452
613.507971	1.000067
613.856682	1.001495
614.205340	0.999664
614.553945	1.000214
614.902496	1.000376
615.250994	1.000913
615.599439	1.000504
615.947830	0.999773
616.296169	1.000533
616.644454	1.000492
616.992686	0.999865
617.340864	1.001315
617.688990	1.000458
618.037063	1.000683
618.385082	1.000025
618.733048	0.999763
619.080961	1.000235
619.428821	1.000622
619.776628	0.999892
620.124382	1.001152
620.472083	1.000570
620.819731	1.001590
621.167326	1.000934
621.514868	1.001199
621.862357	1.000619
622.209793	1.000480
622.557176	1.000083
622.904506	1.000359
623.251783	1.000358
623.599007	1.001046
623.946179	0.999997
624.293297	1.001256
624.640363	1.000732
624.987376	0.999761
625.334336	1.000647
625.681243	1.001007
626.028097	1.000830
626.374899	1.000518
626.721647	1.000917
627.068343	1.000434
627.414987	1.000918
627.761577	1.000299
628.108115	1.000266
628.454600	1.000312
628.801032	1.000372
629.147412	0.999665
629.493739	1.001551
629.840014	0.999977
630.186236	0.999716
630.532405	1.000096
630.878521	1.000092
631.224585	1.000714
631.570597	1.000282
631.916556	1.000984
632.262462	0.999433
632.608316	1.000850
632.954117	1.000073
633.299866	1.000797
633.645562	1.000782
633.991206	1.000205
634.336797	1.000589
634.682336	1.000144
635.027823	1.000638
635.373257	1.000429
635.718639	1.001190
636.063968	0.999858
636.409245	0.999928
636.754470	1.000373
637.099642	1.000002
637.444762	1.000863
637.789829	1.000270
638.134845	1.000612
638.479808	1.000414
638.824719	1.000492
639.169577	1.000707
639.514383	1.000688
639.859137	1.000999
640.203839	1.000185
640.548489	1.000879
640.893086	0.999755
641.237632	1.000789
641.582125	1.000415
641.926566	1.000878
642.270955	1.000523
642.615292	0.999326
642.959576	0.999671
643.303809	1.000529
643.647990	1.000419
643.992118	1.000806
644.336195	0.999900
644.680219	1.000432
645.024192	0.999781
645.368112	0.999434
645.711981	0.999813
646.055797	0.999946
646.399562	0.999467
646.743274	1.000054
647.086935	0.999510
647.430544	0.999951
647.774101	1.000006
648.117606	1.000266
648.461059	1.000981
648.804460	1.000722
649.147810	1.000004
649.491108	1.000202
649.834354	1.000011
650.177548	1.000143
650.520690	1.000285
650.863781	0.999421
651.206820	1.000033
651.549807	0.999520
651.892742	1.000051
652.235626	1.000527
652.578458	1.000037
652.921238	1.000983
653.263967	1.000218
653.606644	0.999282
653.949269	1.000517
654.291843	0.999484
654.634365	1.000402
654.976836	0.999359
655.319255	1.001493
655.661622	0.999577
656.003938	1.000057
656.346203	0.999683
656.688416	1.000815
657.030577	0.999294
657.372687	1.000082
657.714746	0.999377
658.056753	0.999533
658.398708	0.998656
658.740612	1.000797
659.082465	1.000114
659.424266	1.000538
659.766016	0.999621
660.107715	1.000381
660.449362	0.999640
660.790958	0.999330
661.132503	1.000424
661.473996	0.999078
661.815438	1.000142
662.156829	0.999866
662.498168	0.999784
662.839456	0.999687
663.180693	0.999965
663.521879	0.999880
663.863013	1.000614
664.204097	0.999701
664.545129	0.999954
664.886110	1.000281
665.227040	1.000389
665.567918	0.999354
665.908746	0.998312
666.249522	0.999692
666.590248	0.999914
666.930922	0.999417
667.271545	0.999484
667.612118	1.000344
667.952639	0.999364
668.293109	0.999518
668.633528	0.999047
668.973896	1.000086
669.314213	0.999732
669.654480	0.999838
669.994695	0.998945
670.334859	0.999454
670.674973	0.999677
671.015035	0.999260
671.355047	0.999393
671.695008	1.000177
672.034918	0.998898
672.374777	1.000575
672.714585	0.999559
673.054342	0.999470
673.394049	0.999073
673.733705	0.999191
674.073310	0.999513
674.412864	0.999581
674.752368	0.998838
675.091820	1.000879
675.431223	1.000281
675.770574	0.999817
676.109875	0.999385
676.449125	0.998959
676.788324	0.999562
677.127473	0.999615
677.466571	0.999335
677.805619	0.999274
678.144616	1.000477
678.483562	1.000489
678.822458	0.999733
679.161303	0.999288
679.500098	1.000026
679.838842	1.000672
680.177535	0.999076
680.516179	0.999038
680.854771	0.999378
681.193314	0.999425
681.531805	0.999865
681.870247	0.999850
682.208638	0.999583
682.546978	0.998651
682.885268	0.999157
683.223508	0.998731
683.561697	0.999179
683.899836	0.999824
684.237925	0.998693
684.575963	0.998672
684.913951	0.999505
685.251889	0.999107
685.589776	0.999295
685.927614	0.998865
686.265401	0.999633
686.603137	0.998803
686.940824	0.999191
687.278460	0.999875
687.616046	0.999084
687.953582	0.999084
688.291068	0.999373
688.628504	0.999154
