Dividing Wavelength (nm)	Counts (n)	Blue Motor Position (mm): 48.500000	Red Motor Position (mm): 0.000000	
326.493990	1.000769
326.888308	1.000769
327.282561	1.000769
327.676750	1.000149
328.070874	1.001177
328.464933	1.000548
328.858929	1.001404
329.252859	0.999238
329.646726	0.999225
330.040528	0.999882
330.434265	0.999820
330.827938	0.999563
331.221547	1.000163
331.615091	1.000390
332.008571	1.001044
332.401986	0.999582
332.795338	0.999508
333.188625	1.000411
333.581847	1.000129
333.975006	1.000525
334.368100	1.000346
334.761129	0.999055
335.154095	1.000588
335.546996	1.000248
335.939833	0.999321
336.332606	1.001182
336.725315	0.998872
337.117960	1.002255
337.510540	0.999351
337.903056	0.999621
338.295508	1.000961
338.687896	1.000996
339.080220	1.000071
339.472480	1.000250
339.864676	1.000521
340.256807	0.999225
340.648875	1.000933
341.040879	0.999999
341.432818	1.000490
341.824694	0.999265
342.216506	0.999496
342.608253	0.999716
342.999937	0.999744
343.391557	0.998611
343.783113	1.000552
344.174605	1.000168
344.566033	0.999719
344.957397	1.000249
345.348697	1.000035
345.739934	1.001461
346.131106	1.000638
346.522215	1.000268
346.913260	0.999781
347.304241	0.999589
347.695159	1.001495
348.086012	0.998737
348.476802	1.000490
348.867528	0.999467
349.258191	1.000212
349.648789	0.999430
350.039324	1.000933
350.429796	0.999879
350.820203	0.998969
351.210548	0.999935
351.600828	1.000245
351.991045	1.000156
352.381198	1.000119
352.771288	0.999557
353.161314	1.000902
353.551276	0.999867
353.941175	0.999630
354.331010	1.000163
354.720782	1.000261
355.110490	1.000148
355.500135	1.001068
355.889717	0.999875
356.279235	0.999879
356.668689	1.000591
357.058080	1.000454
357.447408	0.999063
357.836672	1.000186
358.225873	1.000394
358.615010	1.000022
359.004084	0.999305
359.393095	0.999872
359.782043	0.998817
360.170927	1.001067
360.559748	1.000110
360.948505	1.000145
361.337199	0.998850
361.725830	1.000220
362.114398	0.999240
362.502903	1.000006
362.891344	0.999040
363.279722	0.999571
363.668037	1.000541
364.056289	0.999499
364.444478	1.000122
364.832603	0.999090
365.220665	0.999603
365.608665	0.999426
365.996601	0.999341
366.384474	0.999573
366.772284	0.999025
367.160031	0.997108
367.547715	0.998546
367.935336	0.998970
368.322893	0.997934
368.710388	0.996544
369.097820	0.996066
369.485189	0.993683
369.872495	0.993476
370.259738	0.992731
370.646918	0.991534
371.034035	0.991192
371.421090	0.990405
371.808081	0.988790
372.195010	0.988345
372.581875	0.986932
372.968678	0.986731
373.355418	0.985097
373.742096	0.982670
374.128710	0.983473
374.515262	0.982914
374.901751	0.981714
375.288177	0.982451
375.674540	0.981059
376.060841	0.980933
376.447079	0.979081
376.833254	0.979926
377.219367	0.980486
377.605417	0.980221
377.991404	0.980952
378.377329	0.981671
378.763191	0.981067
379.148991	0.981209
379.534727	0.981301
379.920402	0.981710
380.306013	0.981875
380.691563	0.983289
381.077049	0.983305
381.462474	0.985283
381.847835	0.984321
382.233134	0.986687
382.618371	0.987465
383.003545	0.988560
383.388657	0.988982
383.773706	0.989843
384.158693	0.990987
384.543618	0.993206
384.928480	0.993749
385.313280	0.994059
385.698017	0.992973
386.082692	0.994557
386.467305	0.994724
386.851856	0.996725
387.236344	0.996370
387.620770	0.998233
388.005133	0.997954
388.389435	0.997863
388.773674	0.997105
389.157851	0.999036
389.541965	0.999283
389.926018	0.999468
390.310008	0.999232
390.693936	0.999932
391.077802	1.000195
391.461606	0.998845
391.845348	1.000276
392.229027	0.998529
392.612645	1.000515
392.996200	1.001316
393.379694	0.998895
393.763125	1.001461
394.146494	1.000371
394.529801	0.999974
394.913047	0.999798
395.296230	1.000004
395.679351	1.000309
396.062410	1.000884
396.445408	0.999909
396.828343	1.000417
397.211217	1.000658
397.594028	1.000097
397.976778	1.000180
398.359466	0.999698
398.742092	1.000658
399.124656	0.999262
399.507158	1.000308
399.889598	1.000948
400.271977	1.000758
400.654294	0.999785
401.036549	1.000999
401.418742	1.000651
401.800874	1.000222
402.182944	1.000170
402.564952	0.999915
402.946898	1.000641
403.328783	1.000498
403.710606	0.999716
404.092367	1.000878
404.474067	1.001436
404.855705	1.001491
405.237282	1.000112
405.618797	1.001788
406.000250	1.001125
406.381642	1.000437
406.762972	1.001121
407.144240	1.000957
407.525447	0.998903
407.906593	1.000167
408.287677	0.999931
408.668700	1.000775
409.049661	1.000804
409.430560	1.000687
409.811399	1.000990
410.192176	1.000943
410.572891	1.000942
410.953545	0.999629
411.334138	1.000856
411.714669	0.999633
412.095139	1.000564
412.475547	1.000353
412.855894	1.001015
413.236180	0.999982
413.616405	1.000541
413.996568	0.999986
414.376670	1.000027
414.756711	0.999888
415.136691	0.999430
415.516609	0.999899
415.896466	1.000666
416.276262	0.999909
416.655997	1.001130
417.035670	1.000865
417.415283	1.000603
417.794834	1.000444
418.174324	1.001637
418.553753	0.999638
418.933121	1.000980
419.312428	1.001208
419.691674	1.000793
420.070859	1.000118
420.449983	1.001026
420.829045	1.000205
421.208047	1.001656
421.586988	0.999731
421.965867	0.999708
422.344686	1.000596
422.723444	1.000677
423.102141	1.000757
423.480777	0.999671
423.859352	1.001338
424.237866	1.001467
424.616319	1.000706
424.994712	1.000560
425.373044	1.001434
425.751314	1.000508
426.129524	1.000563
426.507673	1.000179
426.885762	1.000448
427.263789	1.000453
427.641756	1.000223
428.019662	1.000288
428.397508	1.001027
428.775292	0.999931
429.153016	1.000109
429.530679	1.000478
429.908282	1.000665
430.285824	1.000887
430.663305	0.999943
431.040726	1.000779
431.418086	1.000709
431.795385	1.001334
432.172624	1.001168
432.549802	0.999412
432.926920	1.000391
433.303977	0.999797
433.680974	1.000766
434.057910	1.000729
434.434786	0.999763
434.811601	1.000228
435.188355	1.000443
435.565050	1.001150
435.941683	1.000204
436.318257	0.999896
436.694770	1.000158
437.071222	1.001112
437.447614	1.000584
437.823946	1.000676
438.200218	1.000494
438.576429	0.999638
438.952580	1.001092
439.328670	0.999415
439.704700	1.000150
440.080670	1.000726
440.456580	1.000415
440.832429	1.000635
441.208218	1.000625
441.583947	0.999766
441.959616	0.999892
442.335224	1.000952
442.710773	1.001510
443.086261	1.001293
443.461689	1.000518
443.837057	1.000142
444.212365	1.000648
444.587612	1.001527
444.962800	1.000489
445.337927	1.000830
445.712995	1.000702
446.088002	1.000228
446.462949	0.999933
446.837837	1.001836
447.212664	0.999731
447.587431	1.000926
447.962139	1.000139
448.336786	0.999471
448.711374	1.000754
449.085901	1.000641
449.460369	1.001273
449.834776	1.000280
450.209124	1.000945
450.583412	1.001387
450.957640	1.001051
451.331808	1.000764
451.705917	1.000433
452.079965	1.000917
452.453954	1.000816
452.827883	1.000811
453.201752	1.000783
453.575562	0.999776
453.949311	1.000803
454.323001	1.000135
454.696632	1.000036
455.070202	1.000072
455.443713	1.000650
455.817164	1.000410
456.190556	1.000813
456.563888	1.001387
456.937160	1.000977
457.310373	1.000499
457.683526	1.000836
458.056619	1.000956
458.429653	1.000371
458.802628	1.000179
459.175542	0.999747
459.548398	1.001197
459.921194	1.001604
460.293930	1.001085
460.666607	1.001117
461.039224	1.000497
461.411782	1.000433
461.784280	1.000495
462.156719	1.001492
462.529099	1.000979
462.901419	1.001021
463.273680	1.000305
463.645882	1.000205
464.018024	1.000767
464.390106	1.000620
464.762130	1.000875
465.134094	1.000911
465.505999	1.000383
465.877845	1.000137
466.249631	1.000436
466.621358	1.000084
466.993026	1.000987
467.364634	1.000805
467.736184	1.001179
468.107674	1.001387
468.479105	1.000300
468.850477	1.001035
469.221790	1.001225
469.593043	1.000969
469.964238	1.000071
470.335373	1.000307
470.706449	1.000210
471.077467	1.001114
471.448425	1.000176
471.819324	1.001204
472.190164	1.000235
472.560945	1.000264
472.931667	1.000418
473.302330	1.001712
473.672934	1.001164
474.043479	1.000760
474.413965	1.001147
474.784393	1.000903
475.154761	1.000500
475.525070	1.000883
475.895321	1.000797
476.265513	1.001208
476.635645	1.000652
477.005719	1.000877
477.375734	1.001200
477.745691	1.000880
478.115588	1.000488
478.485427	1.000158
478.855207	1.000340
479.224928	1.000583
479.594591	1.000705
479.964194	1.000664
480.333739	1.001087
480.703226	1.000766
481.072653	1.000827
481.442022	1.000719
481.811333	1.000268
482.180584	1.000626
482.549777	1.000638
482.918912	1.000330
483.287988	1.001157
483.657005	1.000241
484.025964	1.000288
484.394864	1.000506
484.763706	1.000554
485.132489	1.000519
485.501213	1.000614
485.869879	1.000446
486.238487	0.999670
486.607036	1.000585
486.975527	1.000524
487.343959	1.000212
487.712333	1.000668
488.080648	0.999919
488.448905	1.000520
488.817104	1.000229
489.185244	1.001153
489.553326	1.001080
489.921350	1.000461
490.289315	1.000591
490.657222	0.999614
491.025070	1.000825
491.392861	1.000484
491.760593	1.000695
492.128267	1.000528
492.495883	0.999668
492.863440	1.000873
493.230939	1.000259
493.598380	1.001049
493.965763	1.000198
494.333088	0.999506
494.700354	1.000060
495.067563	1.000447
495.434713	1.000482
495.801805	1.000103
496.168839	1.000802
496.535815	1.000582
496.902733	1.000549
497.269593	0.999946
497.636395	0.999988
498.003139	1.000135
498.369825	1.000755
498.736453	1.000729
499.103023	1.000767
499.469535	1.000338
499.835989	1.000689
500.202385	1.000919
500.568723	1.000822
500.935003	1.000820
501.301226	1.000424
501.667390	1.000410
502.033497	1.000699
502.399546	1.000441
502.765537	1.000207
503.131470	1.000647
503.497345	1.001492
503.863163	1.000901
504.228923	1.000131
504.594625	1.000660
504.960269	1.000528
505.325856	1.001330
505.691385	1.001335
506.056856	1.000575
506.422270	1.000833
506.787625	1.000940
507.152924	1.001574
507.518164	1.000002
507.883347	1.000390
508.248472	1.000789
508.613540	1.000293
508.978550	1.000620
509.343503	1.000367
509.708398	1.000914
510.073236	1.001001
510.438016	0.999893
510.802738	1.000238
511.167403	1.000298
511.532010	1.000537
511.896561	1.000487
512.261053	1.000273
512.625488	1.000500
512.989866	1.000566
513.354186	1.000146
513.718449	1.000785
514.082655	0.999970
514.446803	1.001324
514.810894	1.001002
515.174927	1.000304
515.538904	1.000480
515.902822	1.000490
516.266684	1.000492
516.630488	1.000513
516.994235	1.000191
517.357925	1.000835
517.721558	1.000697
518.085133	1.000461
518.448651	1.000147
518.812112	1.000694
519.175516	1.000625
519.538863	1.000151
519.902152	1.000796
520.265385	1.000719
520.628560	1.000523
520.991678	1.000532
521.354739	1.000932
521.717743	1.000591
522.080690	1.000166
522.443580	1.000154
522.806413	1.000880
523.169189	1.000590
523.531908	0.999876
523.894569	1.001266
524.257174	1.000691
524.619722	1.001007
524.982213	1.000570
525.344647	1.000294
525.707025	0.999299
526.069345	0.999822
526.431608	1.001225
526.793815	1.000953
527.155964	1.001496
527.518057	1.000462
527.880093	1.000814
528.242072	1.000170
528.603995	1.000718
528.965860	1.000630
529.327669	1.001139
529.689421	1.000031
530.051117	1.000739
530.412755	1.000905
530.774337	1.000533
531.135862	1.001114
531.497331	1.000950
531.858743	1.000382
532.220098	1.000135
532.581396	1.000932
532.942638	1.000863
533.303824	1.001493
533.664953	0.999951
534.026025	1.000719
534.387040	1.000093
534.747999	1.000286
535.108902	1.000812
535.469748	1.000974
535.830537	1.000759
536.191270	1.000871
536.551947	1.000387
536.912567	1.000476
537.273131	1.001039
537.633638	1.000304
537.994089	1.000566
538.354483	1.000892
538.714821	1.000958
539.075103	1.001110
539.435328	1.001472
539.795497	1.000179
540.155609	1.001403
540.515665	1.000740
540.875665	1.000514
541.235609	1.000999
541.595496	1.000381
541.955328	1.000448
542.315102	1.000836
542.674821	1.000707
543.034483	1.001610
543.394090	1.000324
543.753640	1.001055
544.113134	1.000596
544.472571	1.001121
544.831953	1.001923
545.191278	1.000926
545.550548	1.000527
545.909761	1.000517
546.268918	1.001543
546.628019	1.001436
546.987064	1.000976
547.346053	0.999649
547.704986	1.000646
548.063863	0.999728
548.422684	1.001155
548.781449	1.000186
549.140158	1.001077
549.498811	1.000609
549.857408	1.000237
550.215949	1.000388
550.574434	1.000379
550.932864	1.000659
551.291237	1.000331
551.649555	1.000679
552.007817	1.000686
552.366022	1.001031
552.724173	1.000837
553.082267	1.000161
553.440305	1.000423
553.798288	0.999299
554.156215	1.000294
554.514086	1.000571
554.871902	1.000572
555.229661	1.000677
555.587365	1.000900
555.945014	1.001630
556.302606	1.000484
556.660143	1.000826
557.017625	1.000670
557.375050	1.000407
557.732421	1.001153
558.089735	1.000258
558.446994	1.000522
558.804197	1.000485
559.161345	1.000381
559.518437	1.000084
559.875474	1.001295
560.232455	1.000816
560.589381	1.000803
560.946251	1.001108
561.303065	1.001110
561.659825	1.000276
562.016528	1.001234
562.373177	1.000935
562.729770	1.000694
563.086307	1.000080
563.442789	1.000816
563.799216	1.000331
564.155587	1.000630
564.511904	1.001193
564.868164	1.000303
565.224370	1.000272
565.580520	1.000628
565.936615	1.000656
566.292654	1.000820
566.648638	1.001152
567.004567	1.001166
567.360441	1.000845
567.716260	1.000341
568.072023	1.000722
568.427732	1.000771
568.783385	1.000908
569.138982	1.001148
569.494525	1.000757
569.850013	1.001036
570.205445	1.000648
570.560823	1.000548
570.916145	1.000200
571.271412	1.000394
571.626625	1.000880
571.981782	1.000936
572.336884	1.000864
572.691931	1.000468
573.046923	1.000645
573.401860	1.000411
573.756743	1.001016
574.111570	1.000636
574.466342	1.001041
574.821059	1.000222
575.175722	1.001058
575.530330	1.000617
575.884882	1.000789
576.239380	1.001237
576.593823	1.000576
576.948211	1.000661
577.302544	1.000704
577.656823	1.000436
578.011047	1.000033
578.365216	1.001047
578.719330	1.001002
579.073389	0.999693
579.427394	1.001103
579.781344	1.000404
580.135239	1.000069
580.489080	1.000852
580.842866	1.001077
581.196597	1.000460
581.550273	0.999643
581.903895	1.001466
582.257463	1.000607
582.610975	1.000547
582.964434	1.000801
583.317837	1.000979
583.671186	1.001249
584.024481	1.000723
584.377721	0.999685
584.730906	1.001269
585.084037	1.001843
585.437113	1.000933
585.790135	1.000885
586.143103	1.000794
586.496016	1.000226
586.848874	1.001680
587.201679	1.001047
587.554428	1.000921
587.907124	1.000498
588.259765	1.000753
588.612352	1.001319
588.964884	1.000740
589.317362	1.001485
589.669786	1.000574
590.022155	1.000315
590.374470	1.000184
590.726731	1.000110
591.078937	1.000636
591.431090	1.000192
591.783188	1.000151
592.135232	1.000617
592.487222	1.000973
592.839157	1.000833
593.191038	1.001034
593.542866	1.001081
593.894639	0.999437
594.246358	1.001214
594.598022	1.000961
594.949633	1.000731
595.301190	1.000470
595.652692	1.000164
596.004141	1.000167
596.355535	1.000397
596.706876	1.000665
597.058162	1.000758
597.409395	1.000133
597.760573	1.000727
598.111698	1.000109
598.462768	0.999669
598.813785	0.999819
599.164748	1.000441
599.515657	1.000305
599.866511	1.001157
600.217312	1.000995
600.568060	1.000186
600.918753	1.001574
601.269392	1.000947
601.619978	1.000854
601.970510	1.000228
602.320988	1.000409
602.671412	1.000693
603.021783	1.000859
603.372100	1.000936
603.722363	1.000815
604.072572	1.000617
604.422728	1.000230
604.772830	1.000732
605.122878	1.000582
605.472872	1.001678
605.822813	1.000068
606.172701	1.000384
606.522534	1.001800
606.872314	1.001085
607.222041	1.000818
607.571714	1.000938
607.921333	1.000847
608.270899	1.001195
608.620411	1.000452
608.969870	1.001100
609.319276	1.001689
609.668627	1.000748
610.017926	1.000854
610.367171	1.001261
610.716362	1.000894
611.065500	0.999738
611.414585	1.000381
611.763616	1.000122
612.112594	1.000859
612.461518	1.000101
612.810389	1.000564
613.159207	1.000856
613.507971	1.000210
613.856682	1.001408
614.205340	0.999607
614.553945	1.001349
614.902496	1.000384
615.250994	1.000258
615.599439	1.001228
615.947830	1.000066
616.296169	1.000667
616.644454	1.000479
616.992686	1.000329
617.340864	1.000819
617.688990	0.999502
618.037063	1.000585
618.385082	0.999834
618.733048	0.999776
619.080961	1.000187
619.428821	1.000698
619.776628	0.999729
620.124382	1.001046
620.472083	1.000446
620.819731	1.001756
621.167326	1.001014
621.514868	1.000723
621.862357	1.000562
622.209793	1.000587
622.557176	1.000905
622.904506	1.000605
623.251783	1.001088
623.599007	1.001612
623.946179	0.999912
624.293297	1.001033
624.640363	1.000896
624.987376	1.000101
625.334336	1.000936
625.681243	1.000273
626.028097	1.000570
626.374899	1.000630
626.721647	1.001077
627.068343	1.000128
627.414987	1.000702
627.761577	1.000027
628.108115	0.999879
628.454600	1.001527
628.801032	1.000737
629.147412	1.000796
629.493739	1.001516
629.840014	1.000731
630.186236	0.999937
630.532405	1.000138
630.878521	0.999484
631.224585	0.999913
631.570597	1.000461
631.916556	1.001166
632.262462	0.999601
632.608316	1.001006
632.954117	0.999469
633.299866	1.000632
633.645562	1.000552
633.991206	1.000996
634.336797	1.000160
634.682336	1.002059
635.027823	1.000287
635.373257	1.000593
635.718639	1.000598
636.063968	1.000526
636.409245	1.000344
636.754470	1.000654
637.099642	1.000700
637.444762	1.001489
637.789829	1.000532
638.134845	1.000100
638.479808	1.001244
638.824719	1.000339
639.169577	1.000664
639.514383	1.000806
639.859137	1.000033
640.203839	1.000229
640.548489	1.000463
640.893086	1.000172
641.237632	1.000738
641.582125	1.000203
641.926566	1.000974
642.270955	1.001280
642.615292	0.999949
642.959576	1.000432
643.303809	1.000970
643.647990	1.000515
643.992118	1.000949
644.336195	0.999996
644.680219	1.000548
645.024192	1.000320
645.368112	0.999639
645.711981	1.000547
646.055797	0.999818
646.399562	1.000084
646.743274	1.000627
647.086935	0.999309
647.430544	0.999981
647.774101	0.999438
648.117606	1.001235
648.461059	1.001161
648.804460	1.000282
649.147810	1.000055
649.491108	1.000235
649.834354	1.000515
650.177548	1.000229
650.520690	1.000085
650.863781	1.000211
651.206820	1.000736
651.549807	1.000144
651.892742	1.000825
652.235626	1.000589
652.578458	1.000532
652.921238	1.001413
653.263967	1.001539
653.606644	1.000668
653.949269	1.001035
654.291843	1.000044
654.634365	1.001134
654.976836	0.999402
655.319255	1.001179
655.661622	1.001226
656.003938	0.999956
656.346203	0.999995
656.688416	1.001021
657.030577	1.000269
657.372687	1.000478
657.714746	0.999822
658.056753	1.000005
658.398708	0.999953
658.740612	1.001115
659.082465	1.000455
659.424266	1.000326
659.766016	0.999771
660.107715	1.001347
660.449362	1.000376
660.790958	1.000014
661.132503	1.000862
661.473996	0.999374
661.815438	1.000582
662.156829	1.000191
662.498168	1.000434
662.839456	0.999229
663.180693	0.999982
663.521879	1.000375
663.863013	1.000522
664.204097	1.000312
664.545129	1.000532
664.886110	1.000493
665.227040	0.999933
665.567918	0.999811
665.908746	0.999703
666.249522	1.000031
666.590248	0.999710
666.930922	1.000308
667.271545	1.000237
667.612118	1.000282
667.952639	1.001123
668.293109	1.000149
668.633528	1.000397
668.973896	1.000841
669.314213	1.000003
669.654480	1.000227
669.994695	0.999849
670.334859	1.000247
670.674973	1.000288
671.015035	1.000455
671.355047	0.999708
671.695008	0.999640
672.034918	1.000243
672.374777	1.000016
672.714585	1.000569
673.054342	1.000809
673.394049	1.000018
673.733705	1.000028
674.073310	1.000730
674.412864	1.000539
674.752368	0.999689
675.091820	1.001488
675.431223	1.000583
675.770574	1.000090
676.109875	1.000324
676.449125	0.999970
676.788324	1.000109
677.127473	1.000713
677.466571	1.000032
677.805619	0.999641
678.144616	1.000411
678.483562	1.000639
678.822458	1.000823
679.161303	1.000154
679.500098	1.000770
679.838842	1.001432
680.177535	0.999515
680.516179	0.999607
680.854771	0.999676
681.193314	0.999631
681.531805	0.999936
681.870247	0.999516
682.208638	1.000346
682.546978	0.999673
682.885268	0.999184
683.223508	0.999480
683.561697	0.999860
683.899836	0.999449
684.237925	1.000405
684.575963	1.000136
684.913951	1.000494
685.251889	0.999915
685.589776	1.000405
685.927614	0.999925
686.265401	0.999790
686.603137	0.999862
686.940824	1.000102
687.278460	0.999877
687.616046	0.999515
687.953582	0.999887
688.291068	1.000763
688.628504	0.999891
