Dividing Wavelength (nm)	Counts (n)	Blue Motor Position (mm): 47.200000	Red Motor Position (mm): 0.000000	
326.493990	1.000426
326.888308	1.000426
327.282561	1.000426
327.676750	1.000598
328.070874	1.001069
328.464933	1.001238
328.858929	1.001289
329.252859	0.999787
329.646726	1.000142
330.040528	1.000214
330.434265	1.000296
330.827938	0.999347
331.221547	1.000551
331.615091	0.999262
332.008571	1.001154
332.401986	0.999531
332.795338	1.001192
333.188625	1.001446
333.581847	0.999346
333.975006	1.001388
334.368100	1.001482
334.761129	0.999584
335.154095	1.001574
335.546996	0.999318
335.939833	0.999945
336.332606	1.001363
336.725315	0.999830
337.117960	1.000657
337.510540	1.000030
337.903056	1.000440
338.295508	1.002512
338.687896	1.001709
339.080220	1.001921
339.472480	1.000579
339.864676	1.000753
340.256807	0.999602
340.648875	1.000936
341.040879	0.999653
341.432818	1.000920
341.824694	1.000484
342.216506	1.001426
342.608253	0.999505
342.999937	0.999820
343.391557	0.999513
343.783113	1.001627
344.174605	1.001029
344.566033	0.999967
344.957397	1.001557
345.348697	1.001506
345.739934	1.000846
346.131106	1.000046
346.522215	1.000339
346.913260	1.000231
347.304241	1.000019
347.695159	1.000589
348.086012	0.999806
348.476802	1.000644
348.867528	0.999855
349.258191	1.000467
349.648789	1.001274
350.039324	1.000314
350.429796	0.999210
350.820203	0.999954
351.210548	0.999826
351.600828	1.000548
351.991045	1.000900
352.381198	1.000794
352.771288	1.000612
353.161314	1.000684
353.551276	1.000116
353.941175	0.999010
354.331010	1.000740
354.720782	1.000421
355.110490	0.999929
355.500135	1.001501
355.889717	0.999424
356.279235	0.999558
356.668689	1.000958
357.058080	1.000795
357.447408	1.000658
357.836672	1.000691
358.225873	1.000401
358.615010	1.000533
359.004084	0.998777
359.393095	1.000471
359.782043	0.999437
360.170927	1.000504
360.559748	1.000854
360.948505	0.999811
361.337199	1.000068
361.725830	1.000508
362.114398	1.000050
362.502903	0.999624
362.891344	0.998765
363.279722	1.000157
363.668037	1.000572
364.056289	1.000084
364.444478	1.001483
364.832603	0.999651
365.220665	0.999818
365.608665	0.999596
365.996601	0.999279
366.384474	0.999178
366.772284	0.998988
367.160031	0.997835
367.547715	0.997634
367.935336	0.997931
368.322893	0.996110
368.710388	0.996246
369.097820	0.996154
369.485189	0.993367
369.872495	0.991880
370.259738	0.989370
370.646918	0.987332
371.034035	0.985107
371.421090	0.983187
371.808081	0.979152
372.195010	0.977924
372.581875	0.975277
372.968678	0.973847
373.355418	0.971599
373.742096	0.966262
374.128710	0.966340
374.515262	0.965339
374.901751	0.962984
375.288177	0.960189
375.674540	0.960205
376.060841	0.957223
376.447079	0.957153
376.833254	0.955769
377.219367	0.956375
377.605417	0.951767
377.991404	0.953259
378.377329	0.952573
378.763191	0.952794
379.148991	0.951901
379.534727	0.952043
379.920402	0.950880
380.306013	0.952316
380.691563	0.952097
381.077049	0.953409
381.462474	0.955391
381.847835	0.954903
382.233134	0.957677
382.618371	0.960788
383.003545	0.960102
383.388657	0.962318
383.773706	0.964536
384.158693	0.966880
384.543618	0.969145
384.928480	0.970562
385.313280	0.972895
385.698017	0.973894
386.082692	0.976140
386.467305	0.977275
386.851856	0.980075
387.236344	0.981815
387.620770	0.984153
388.005133	0.985337
388.389435	0.986871
388.773674	0.988117
389.157851	0.989596
389.541965	0.990729
389.926018	0.992277
390.310008	0.993084
390.693936	0.995133
391.077802	0.994444
391.461606	0.996254
391.845348	0.997044
392.229027	0.995719
392.612645	0.997367
392.996200	0.998220
393.379694	0.996963
393.763125	0.998397
394.146494	0.998592
394.529801	0.998862
394.913047	0.998036
395.296230	0.998843
395.679351	0.998721
396.062410	0.999975
396.445408	0.999506
396.828343	1.000134
397.211217	0.999710
397.594028	0.999829
397.976778	0.999910
398.359466	1.000229
398.742092	1.000570
399.124656	0.998997
399.507158	0.998959
399.889598	1.000204
400.271977	1.000853
400.654294	0.999116
401.036549	1.000797
401.418742	1.000657
401.800874	1.000289
402.182944	0.999362
402.564952	0.999645
402.946898	1.000243
403.328783	0.999870
403.710606	1.000005
404.092367	1.000011
404.474067	1.000415
404.855705	1.001030
405.237282	1.000577
405.618797	0.999884
406.000250	1.000057
406.381642	0.999639
406.762972	1.001556
407.144240	1.000909
407.525447	0.998510
407.906593	0.999111
408.287677	0.999771
408.668700	1.001067
409.049661	1.000035
409.430560	0.999786
409.811399	0.999862
410.192176	1.000095
410.572891	1.001179
410.953545	0.998872
411.334138	0.999683
411.714669	0.999829
412.095139	0.999486
412.475547	1.000211
412.855894	0.999819
413.236180	1.000157
413.616405	0.999446
413.996568	1.000635
414.376670	1.000364
414.756711	1.000445
415.136691	0.999883
415.516609	0.999729
415.896466	1.000012
416.276262	0.998455
416.655997	1.000505
417.035670	1.000341
417.415283	0.999371
417.794834	1.000698
418.174324	1.000851
418.553753	1.000076
418.933121	0.999622
419.312428	1.001633
419.691674	1.000158
420.070859	1.000537
420.449983	1.000058
420.829045	0.999753
421.208047	1.000710
421.586988	0.999471
421.965867	0.999517
422.344686	1.000051
422.723444	0.999759
423.102141	1.000025
423.480777	0.999290
423.859352	0.999889
424.237866	1.000178
424.616319	1.000744
424.994712	1.000470
425.373044	1.001005
425.751314	1.000603
426.129524	1.000782
426.507673	1.000021
426.885762	1.000569
427.263789	1.000216
427.641756	0.999678
428.019662	1.000966
428.397508	1.000906
428.775292	0.999315
429.153016	0.999342
429.530679	1.000170
429.908282	0.999962
430.285824	1.000194
430.663305	0.999917
431.040726	0.999939
431.418086	1.000200
431.795385	1.001038
432.172624	1.001502
432.549802	0.999568
432.926920	1.000331
433.303977	0.999998
433.680974	1.000649
434.057910	1.000443
434.434786	0.999600
434.811601	1.000435
435.188355	1.000805
435.565050	1.001390
435.941683	0.999753
436.318257	0.999863
436.694770	1.000244
437.071222	1.000429
437.447614	1.000287
437.823946	1.000416
438.200218	1.000329
438.576429	0.999344
438.952580	1.000577
439.328670	0.999330
439.704700	0.999285
440.080670	1.000028
440.456580	1.001175
440.832429	1.000366
441.208218	1.000871
441.583947	1.000797
441.959616	0.999624
442.335224	1.000479
442.710773	1.000728
443.086261	1.000257
443.461689	0.999663
443.837057	1.000256
444.212365	1.000737
444.587612	1.001466
444.962800	1.000296
445.337927	1.001036
445.712995	1.000074
446.088002	1.000041
446.462949	1.000371
446.837837	1.001285
447.212664	1.000202
447.587431	1.000718
447.962139	1.000203
448.336786	0.999745
448.711374	1.000333
449.085901	1.001221
449.460369	1.000914
449.834776	1.000042
450.209124	1.000642
450.583412	1.000488
450.957640	1.000579
451.331808	1.001152
451.705917	1.000123
452.079965	1.000604
452.453954	1.000693
452.827883	1.000326
453.201752	1.000718
453.575562	0.999754
453.949311	1.000043
454.323001	1.000424
454.696632	1.000416
455.070202	0.999698
455.443713	1.000730
455.817164	1.000481
456.190556	0.999689
456.563888	1.000729
456.937160	1.000225
457.310373	1.000275
457.683526	1.000050
458.056619	1.000965
458.429653	1.000151
458.802628	0.999890
459.175542	1.000365
459.548398	1.000109
459.921194	1.000300
460.293930	1.000619
460.666607	1.000170
461.039224	0.999933
461.411782	1.000057
461.784280	1.000118
462.156719	1.000408
462.529099	1.001352
462.901419	1.000343
463.273680	0.999608
463.645882	1.000220
464.018024	1.001351
464.390106	0.999748
464.762130	0.999446
465.134094	0.999383
465.505999	1.000333
465.877845	0.999862
466.249631	1.000008
466.621358	0.999172
466.993026	1.000116
467.364634	1.000050
467.736184	0.999709
468.107674	0.999889
468.479105	1.000207
468.850477	1.000789
469.221790	1.000369
469.593043	1.000226
469.964238	1.000167
470.335373	0.999857
470.706449	1.001060
471.077467	1.001324
471.448425	1.001058
471.819324	1.000212
472.190164	1.000395
472.560945	1.000357
472.931667	1.000711
473.302330	0.999976
473.672934	1.001026
474.043479	0.999972
474.413965	1.001061
474.784393	1.000375
475.154761	1.000199
475.525070	1.000224
475.895321	1.001028
476.265513	1.000969
476.635645	1.000992
477.005719	1.000307
477.375734	1.000179
477.745691	1.000567
478.115588	1.000438
478.485427	1.000536
478.855207	1.000240
479.224928	1.000074
479.594591	1.000733
479.964194	1.000161
480.333739	1.000378
480.703226	0.999737
481.072653	1.000234
481.442022	0.999857
481.811333	1.000210
482.180584	1.000433
482.549777	1.000197
482.918912	1.000691
483.287988	0.999734
483.657005	1.000610
484.025964	1.000418
484.394864	1.000024
484.763706	1.000346
485.132489	1.000532
485.501213	1.000499
485.869879	1.000012
486.238487	1.000179
486.607036	1.000735
486.975527	1.000905
487.343959	0.999794
487.712333	1.000642
488.080648	0.999820
488.448905	1.001197
488.817104	1.000182
489.185244	1.000094
489.553326	1.000102
489.921350	1.000047
490.289315	1.000167
490.657222	0.999440
491.025070	1.000370
491.392861	1.000511
491.760593	1.000281
492.128267	1.000157
492.495883	0.999244
492.863440	1.000579
493.230939	1.000865
493.598380	1.000554
493.965763	1.000098
494.333088	0.999336
494.700354	0.999882
495.067563	0.999547
495.434713	1.000129
495.801805	1.000637
496.168839	1.000015
496.535815	1.000394
496.902733	0.999415
497.269593	0.999826
497.636395	0.999781
498.003139	0.999704
498.369825	1.000099
498.736453	1.000343
499.103023	1.000373
499.469535	1.000652
499.835989	1.000601
500.202385	1.000282
500.568723	0.999978
500.935003	1.000474
501.301226	1.000417
501.667390	0.999876
502.033497	1.000161
502.399546	0.999647
502.765537	1.000068
503.131470	1.000693
503.497345	0.999905
503.863163	1.000785
504.228923	1.000469
504.594625	1.000588
504.960269	1.000265
505.325856	1.000942
505.691385	1.000026
506.056856	1.000428
506.422270	1.000237
506.787625	1.000023
507.152924	1.000573
507.518164	1.000232
507.883347	0.999737
508.248472	1.000700
508.613540	0.999320
508.978550	1.000444
509.343503	1.000783
509.708398	1.000826
510.073236	1.000715
510.438016	0.999563
510.802738	0.999604
511.167403	0.999995
511.532010	1.000848
511.896561	1.000080
512.261053	1.000023
512.625488	1.000148
512.989866	1.000548
513.354186	0.999417
513.718449	1.000797
514.082655	0.999410
514.446803	0.999707
514.810894	1.000450
515.174927	1.001263
515.538904	1.000757
515.902822	1.000200
516.266684	1.000498
516.630488	0.999826
516.994235	1.000233
517.357925	1.000774
517.721558	1.000032
518.085133	0.999586
518.448651	1.000423
518.812112	1.000457
519.175516	0.999934
519.538863	0.999826
519.902152	1.000169
520.265385	1.000160
520.628560	1.000006
520.991678	0.999759
521.354739	1.001002
521.717743	0.999893
522.080690	1.000305
522.443580	1.000443
522.806413	0.999945
523.169189	1.000414
523.531908	0.999312
523.894569	1.000179
524.257174	1.000364
524.619722	1.000365
524.982213	1.000036
525.344647	1.000334
525.707025	1.000307
526.069345	0.999678
526.431608	1.001162
526.793815	1.001061
527.155964	1.000824
527.518057	1.000462
527.880093	1.000113
528.242072	1.000304
528.603995	1.000204
528.965860	1.000515
529.327669	0.999583
529.689421	0.999595
530.051117	1.000108
530.412755	1.000674
530.774337	1.000132
531.135862	1.000702
531.497331	0.999846
531.858743	1.000399
532.220098	0.999810
532.581396	1.000363
532.942638	0.999794
533.303824	1.001020
533.664953	1.000031
534.026025	1.000838
534.387040	1.000299
534.747999	0.999661
535.108902	0.999330
535.469748	1.000281
535.830537	1.000618
536.191270	1.000354
536.551947	0.999999
536.912567	0.999878
537.273131	1.000524
537.633638	0.999963
537.994089	1.000883
538.354483	1.000512
538.714821	1.000398
539.075103	1.000230
539.435328	1.000732
539.795497	1.000163
540.155609	1.000403
540.515665	1.000970
540.875665	0.999265
541.235609	1.000456
541.595496	1.000190
541.955328	1.000283
542.315102	0.999858
542.674821	1.001366
543.034483	1.000670
543.394090	1.000417
543.753640	1.000629
544.113134	0.999574
544.472571	1.000518
544.831953	1.000382
545.191278	1.000512
545.550548	0.999462
545.909761	0.999917
546.268918	1.000534
546.628019	0.999841
546.987064	0.999959
547.346053	0.999667
547.704986	1.000467
548.063863	1.000008
548.422684	1.000779
548.781449	1.000402
549.140158	1.000790
549.498811	0.999674
549.857408	0.999114
550.215949	0.999573
550.574434	1.000134
550.932864	1.000664
551.291237	0.999715
551.649555	1.000659
552.007817	1.000523
552.366022	1.000393
552.724173	1.001151
553.082267	1.000313
553.440305	1.000402
553.798288	0.999488
554.156215	1.000302
554.514086	1.000454
554.871902	1.000318
555.229661	1.000363
555.587365	0.999460
555.945014	1.001026
556.302606	1.000418
556.660143	1.000799
557.017625	0.999786
557.375050	0.999765
557.732421	1.000172
558.089735	1.000068
558.446994	0.999648
558.804197	1.000327
559.161345	0.999944
559.518437	0.999789
559.875474	1.000061
560.232455	1.000033
560.589381	1.000772
560.946251	1.000173
561.303065	0.999871
561.659825	0.999934
562.016528	1.000379
562.373177	1.000416
562.729770	1.000124
563.086307	0.999889
563.442789	1.000086
563.799216	0.999819
564.155587	1.000131
564.511904	1.000266
564.868164	0.999524
565.224370	1.000298
565.580520	1.000325
565.936615	1.000284
566.292654	0.999996
566.648638	1.000443
567.004567	1.000201
567.360441	1.000287
567.716260	1.000631
568.072023	1.000227
568.427732	1.000396
568.783385	1.000460
569.138982	1.000655
569.494525	0.999735
569.850013	1.000219
570.205445	1.000593
570.560823	0.999929
570.916145	1.000280
571.271412	1.000371
571.626625	1.000804
571.981782	0.999838
572.336884	1.000387
572.691931	0.999737
573.046923	1.000898
573.401860	1.000046
573.756743	1.000473
574.111570	1.000386
574.466342	1.000716
574.821059	0.999673
575.175722	1.000682
575.530330	1.000023
575.884882	0.999896
576.239380	1.000284
576.593823	0.999632
576.948211	1.000816
577.302544	1.000209
577.656823	1.000152
578.011047	0.999847
578.365216	1.001025
578.719330	1.000660
579.073389	0.999267
579.427394	0.999940
579.781344	1.000526
580.135239	0.999724
580.489080	1.000414
580.842866	1.000569
581.196597	0.999880
581.550273	0.999704
581.903895	1.000997
582.257463	1.000009
582.610975	1.000202
582.964434	0.999949
583.317837	1.000572
583.671186	1.000555
584.024481	0.999975
584.377721	0.999715
584.730906	0.999885
585.084037	1.000829
585.437113	1.000883
585.790135	0.999905
586.143103	1.000332
586.496016	1.000168
586.848874	1.000095
587.201679	1.000179
587.554428	1.000183
587.907124	1.000767
588.259765	1.000139
588.612352	0.999715
588.964884	1.000771
589.317362	1.000047
589.669786	0.999862
590.022155	0.999756
590.374470	1.000252
590.726731	0.999536
591.078937	1.000305
591.431090	0.999949
591.783188	0.999513
592.135232	1.000675
592.487222	0.999913
592.839157	1.000002
593.191038	1.000098
593.542866	0.999874
593.894639	0.999386
594.246358	1.001111
594.598022	1.000694
594.949633	1.000582
595.301190	0.999981
595.652692	1.000100
596.004141	1.000601
596.355535	0.999744
596.706876	1.000776
597.058162	0.999691
597.409395	1.000616
597.760573	1.000900
598.111698	0.999943
598.462768	0.999450
598.813785	0.999670
599.164748	0.999516
599.515657	0.999849
599.866511	1.000211
600.217312	0.999921
600.568060	1.000350
600.918753	1.000117
601.269392	1.000164
601.619978	1.000132
601.970510	0.999993
602.320988	1.000036
602.671412	0.999710
603.021783	1.000742
603.372100	1.001263
603.722363	1.001021
604.072572	1.000527
604.422728	1.000072
604.772830	1.000152
605.122878	1.000924
605.472872	1.001046
605.822813	0.999697
606.172701	0.999896
606.522534	1.000688
606.872314	1.000599
607.222041	0.999740
607.571714	1.000087
607.921333	1.000228
608.270899	0.999749
608.620411	1.000496
608.969870	1.000823
609.319276	1.000788
609.668627	1.000595
610.017926	1.000640
610.367171	1.000290
610.716362	0.999841
611.065500	0.999545
611.414585	1.000193
611.763616	1.000405
612.112594	1.000075
612.461518	0.999479
612.810389	1.000034
613.159207	0.999702
613.507971	1.000045
613.856682	1.000937
614.205340	0.999248
614.553945	1.000234
614.902496	0.999537
615.250994	1.000148
615.599439	1.000827
615.947830	0.999110
616.296169	0.999946
616.644454	1.000260
616.992686	1.000654
617.340864	1.000087
617.688990	0.999455
618.037063	0.999883
618.385082	0.999662
618.733048	0.999813
619.080961	0.999373
619.428821	1.000807
619.776628	0.999507
620.124382	1.001105
620.472083	1.000895
620.819731	1.000814
621.167326	0.999690
621.514868	1.000523
621.862357	1.000576
622.209793	0.999366
622.557176	0.999849
622.904506	0.999466
623.251783	1.000197
623.599007	1.000838
623.946179	0.999068
624.293297	1.000638
624.640363	1.000709
624.987376	0.999258
625.334336	0.999852
625.681243	1.000764
626.028097	1.000316
626.374899	0.999328
626.721647	1.000466
627.068343	1.000362
627.414987	1.000314
627.761577	0.998816
628.108115	0.999737
628.454600	1.000560
628.801032	1.000889
629.147412	1.000511
629.493739	1.001248
629.840014	0.999629
630.186236	0.999382
630.532405	1.000738
630.878521	0.999447
631.224585	1.000159
631.570597	0.999350
631.916556	0.999778
632.262462	0.999313
632.608316	0.999750
632.954117	0.999655
633.299866	0.999909
633.645562	0.999810
633.991206	1.000539
634.336797	0.999863
634.682336	1.000713
635.027823	0.999233
635.373257	1.000275
635.718639	1.000536
636.063968	1.000032
636.409245	0.999743
636.754470	1.000742
637.099642	1.000316
637.444762	1.001104
637.789829	0.999899
638.134845	1.000077
638.479808	0.999760
638.824719	1.000800
639.169577	1.000096
639.514383	1.000165
639.859137	1.001097
640.203839	1.000012
640.548489	1.000246
640.893086	0.999531
641.237632	0.999489
641.582125	0.999645
641.926566	1.000358
642.270955	1.000064
642.615292	0.999465
642.959576	1.000654
643.303809	1.000525
643.647990	1.000596
643.992118	1.000696
644.336195	0.999274
644.680219	1.000126
645.024192	0.999915
645.368112	0.999130
645.711981	1.000356
646.055797	0.999653
646.399562	0.999238
646.743274	1.000144
647.086935	0.999956
647.430544	0.999048
647.774101	0.998309
648.117606	0.999438
648.461059	1.000699
648.804460	1.000301
649.147810	0.999091
649.491108	0.999835
649.834354	0.999132
650.177548	0.999802
650.520690	0.999466
650.863781	0.999063
651.206820	1.000190
651.549807	0.999304
651.892742	1.000171
652.235626	0.999822
652.578458	0.999974
652.921238	1.000565
653.263967	1.001009
653.606644	0.999512
653.949269	1.000400
654.291843	0.999030
654.634365	1.000302
654.976836	0.999976
655.319255	1.000775
655.661622	0.999706
656.003938	0.999687
656.346203	0.999808
656.688416	1.000971
657.030577	0.999785
657.372687	1.000440
657.714746	0.999893
658.056753	0.999644
658.398708	0.999238
658.740612	1.001173
659.082465	0.999972
659.424266	0.999584
659.766016	0.999500
660.107715	0.999986
660.449362	0.999764
660.790958	0.999861
661.132503	0.999857
661.473996	0.998853
661.815438	1.000609
662.156829	0.999898
662.498168	1.001007
662.839456	0.998918
663.180693	0.999656
663.521879	1.000136
663.863013	0.999588
664.204097	0.999044
664.545129	0.999363
664.886110	0.999533
665.227040	0.999027
665.567918	0.999474
665.908746	0.999652
666.249522	0.999296
666.590248	0.999590
666.930922	0.999713
667.271545	0.999176
667.612118	0.999765
667.952639	0.999174
668.293109	0.999785
668.633528	0.999367
668.973896	1.000489
669.314213	0.999532
669.654480	0.999969
669.994695	0.999291
670.334859	0.999538
670.674973	0.998840
671.015035	0.999874
671.355047	0.999802
671.695008	0.999451
672.034918	1.000060
672.374777	1.000598
672.714585	0.999411
673.054342	0.999495
673.394049	0.999931
673.733705	0.999449
674.073310	1.000022
674.412864	0.999368
674.752368	0.999594
675.091820	1.000341
675.431223	0.999862
675.770574	0.999049
676.109875	0.999951
676.449125	0.999038
676.788324	0.998838
677.127473	1.000996
677.466571	1.000437
677.805619	1.000169
678.144616	1.000752
678.483562	1.000680
678.822458	0.999947
679.161303	0.999516
679.500098	0.999556
679.838842	0.999558
680.177535	0.998181
680.516179	0.999312
680.854771	0.999446
681.193314	0.999405
681.531805	0.999215
681.870247	0.999255
682.208638	0.998941
682.546978	0.999141
682.885268	0.999762
683.223508	0.998313
683.561697	0.999021
683.899836	0.999235
684.237925	0.999120
684.575963	0.999663
684.913951	0.999930
685.251889	0.999029
685.589776	0.999319
685.927614	0.999565
686.265401	0.998839
686.603137	0.999202
686.940824	0.999308
687.278460	0.999958
687.616046	0.999198
687.953582	0.999843
688.291068	0.999338
688.628504	0.999329
