Dividing Wavelength (nm)	Counts (n)	Blue Motor Position (mm): 47.100000	Red Motor Position (mm): 0.000000	
326.493990	1.000125
326.888308	1.000125
327.282561	1.000125
327.676750	0.999950
328.070874	1.000426
328.464933	1.001379
328.858929	1.001970
329.252859	1.000035
329.646726	1.001441
330.040528	1.000773
330.434265	1.000667
330.827938	0.999700
331.221547	1.000563
331.615091	1.001023
332.008571	1.001442
332.401986	1.000372
332.795338	0.999947
333.188625	1.001323
333.581847	0.999886
333.975006	1.000898
334.368100	1.001435
334.761129	1.000164
335.154095	1.000816
335.546996	1.000755
335.939833	0.999737
336.332606	1.001168
336.725315	1.000169
337.117960	1.001845
337.510540	0.999019
337.903056	0.999497
338.295508	1.001179
338.687896	1.000248
339.080220	0.999294
339.472480	0.999431
339.864676	1.001594
340.256807	0.998833
340.648875	1.001300
341.040879	1.000033
341.432818	1.001096
341.824694	1.000319
342.216506	1.001801
342.608253	1.001277
342.999937	1.000882
343.391557	1.001156
343.783113	1.001605
344.174605	1.000308
344.566033	0.999437
344.957397	1.000168
345.348697	1.001665
345.739934	1.000324
346.131106	1.001414
346.522215	0.999436
346.913260	1.001142
347.304241	0.999333
347.695159	1.001026
348.086012	0.999603
348.476802	1.000863
348.867528	0.998460
349.258191	1.001853
349.648789	1.000889
350.039324	1.000214
350.429796	0.999035
350.820203	0.998028
351.210548	1.001352
351.600828	0.998984
351.991045	1.000339
352.381198	0.999931
352.771288	1.000937
353.161314	1.000903
353.551276	1.000300
353.941175	0.998494
354.331010	1.001037
354.720782	1.000083
355.110490	1.000264
355.500135	1.000632
355.889717	0.998748
356.279235	0.999767
356.668689	1.001079
357.058080	1.000562
357.447408	0.999287
357.836672	0.998801
358.225873	0.999537
358.615010	0.999936
359.004084	0.999325
359.393095	1.000874
359.782043	0.999078
360.170927	1.000521
360.559748	1.000848
360.948505	0.999790
361.337199	0.999289
361.725830	1.000484
362.114398	0.999956
362.502903	0.998281
362.891344	0.998727
363.279722	1.000217
363.668037	0.999929
364.056289	0.999551
364.444478	1.001282
364.832603	1.000097
365.220665	0.999611
365.608665	0.999658
365.996601	0.998308
366.384474	0.998183
366.772284	1.000144
367.160031	0.998855
367.547715	0.998574
367.935336	0.998828
368.322893	0.996493
368.710388	0.996083
369.097820	0.994741
369.485189	0.992061
369.872495	0.991256
370.259738	0.989566
370.646918	0.987776
371.034035	0.986127
371.421090	0.983006
371.808081	0.979540
372.195010	0.978243
372.581875	0.974677
372.968678	0.972730
373.355418	0.970857
373.742096	0.966279
374.128710	0.965267
374.515262	0.963657
374.901751	0.962497
375.288177	0.959718
375.674540	0.958319
376.060841	0.956263
376.447079	0.954720
376.833254	0.953951
377.219367	0.953533
377.605417	0.949802
377.991404	0.951487
378.377329	0.950541
378.763191	0.950529
379.148991	0.950168
379.534727	0.948623
379.920402	0.948726
380.306013	0.950739
380.691563	0.949997
381.077049	0.951245
381.462474	0.953026
381.847835	0.952113
382.233134	0.956079
382.618371	0.958565
383.003545	0.958051
383.388657	0.960621
383.773706	0.961533
384.158693	0.964688
384.543618	0.967172
384.928480	0.968907
385.313280	0.970805
385.698017	0.971727
386.082692	0.972891
386.467305	0.974397
386.851856	0.980153
387.236344	0.980560
387.620770	0.982972
388.005133	0.984364
388.389435	0.984623
388.773674	0.987236
389.157851	0.988150
389.541965	0.990382
389.926018	0.991476
390.310008	0.993512
390.693936	0.994653
391.077802	0.994951
391.461606	0.994883
391.845348	0.997139
392.229027	0.996968
392.612645	0.997432
392.996200	0.998417
393.379694	0.997028
393.763125	0.999036
394.146494	0.998132
394.529801	0.999257
394.913047	0.998672
395.296230	0.999162
395.679351	0.999465
396.062410	1.000351
396.445408	1.000584
396.828343	1.000986
397.211217	0.999512
397.594028	0.999141
397.976778	0.999754
398.359466	1.000384
398.742092	1.000731
399.124656	1.000152
399.507158	1.000481
399.889598	1.000630
400.271977	1.000620
400.654294	1.000226
401.036549	1.000699
401.418742	1.001086
401.800874	1.000046
402.182944	0.999533
402.564952	1.000314
402.946898	1.000836
403.328783	1.001443
403.710606	1.000015
404.092367	1.000271
404.474067	1.002079
404.855705	1.001884
405.237282	1.000171
405.618797	1.000469
406.000250	1.000347
406.381642	1.001141
406.762972	1.001546
407.144240	1.000742
407.525447	0.999499
407.906593	0.999738
408.287677	1.000570
408.668700	1.000509
409.049661	1.000397
409.430560	0.999904
409.811399	1.000069
410.192176	1.000322
410.572891	1.001068
410.953545	1.000263
411.334138	1.000806
411.714669	1.000544
412.095139	1.001234
412.475547	1.001345
412.855894	1.000751
413.236180	1.000925
413.616405	0.999366
413.996568	1.000454
414.376670	1.000835
414.756711	1.000548
415.136691	1.000200
415.516609	1.000117
415.896466	1.001714
416.276262	1.000252
416.655997	1.001105
417.035670	1.000619
417.415283	1.000689
417.794834	1.000389
418.174324	1.001054
418.553753	1.000509
418.933121	1.000467
419.312428	1.001400
419.691674	1.001760
420.070859	1.001244
420.449983	1.001161
420.829045	1.000562
421.208047	1.001298
421.586988	1.000189
421.965867	0.999452
422.344686	1.000668
422.723444	1.000976
423.102141	1.001698
423.480777	1.000297
423.859352	1.000594
424.237866	1.000061
424.616319	1.001013
424.994712	1.001274
425.373044	1.000696
425.751314	1.000540
426.129524	1.002092
426.507673	0.999549
426.885762	1.000025
427.263789	1.000026
427.641756	1.000026
428.019662	1.001170
428.397508	1.001161
428.775292	1.000704
429.153016	1.000134
429.530679	1.000592
429.908282	1.001298
430.285824	1.000082
430.663305	1.000960
431.040726	1.000467
431.418086	1.001057
431.795385	1.001574
432.172624	1.001372
432.549802	1.000542
432.926920	1.000711
433.303977	1.000542
433.680974	1.001015
434.057910	1.000450
434.434786	1.000514
434.811601	1.001276
435.188355	1.001528
435.565050	1.001597
435.941683	1.000013
436.318257	0.999934
436.694770	1.000871
437.071222	1.000900
437.447614	1.001095
437.823946	1.000964
438.200218	1.000627
438.576429	1.000449
438.952580	1.000711
439.328670	0.999770
439.704700	1.000288
440.080670	1.000809
440.456580	1.000509
440.832429	1.000193
441.208218	1.000924
441.583947	1.000986
441.959616	0.999711
442.335224	1.001162
442.710773	1.001213
443.086261	1.000913
443.461689	1.000393
443.837057	1.000986
444.212365	1.001273
444.587612	1.001862
444.962800	1.001198
445.337927	1.000973
445.712995	1.000651
446.088002	1.000394
446.462949	1.000587
446.837837	1.001956
447.212664	1.000345
447.587431	1.001008
447.962139	1.000779
448.336786	1.000121
448.711374	1.000297
449.085901	1.000481
449.460369	1.001450
449.834776	1.000133
450.209124	1.000948
450.583412	1.001526
450.957640	1.001054
451.331808	1.001700
451.705917	1.000270
452.079965	1.000942
452.453954	1.001884
452.827883	1.001251
453.201752	1.000948
453.575562	1.000131
453.949311	1.001428
454.323001	1.000788
454.696632	1.001099
455.070202	1.000071
455.443713	1.000429
455.817164	1.000564
456.190556	1.000925
456.563888	1.001926
456.937160	1.000548
457.310373	1.000292
457.683526	1.001027
458.056619	1.000786
458.429653	1.001080
458.802628	1.000718
459.175542	1.001380
459.548398	1.000638
459.921194	1.001161
460.293930	1.001569
460.666607	1.001474
461.039224	1.001317
461.411782	1.000840
461.784280	1.000913
462.156719	1.001431
462.529099	1.000464
462.901419	1.000607
463.273680	1.000869
463.645882	1.000690
464.018024	1.001238
464.390106	1.000876
464.762130	1.000856
465.134094	1.001601
465.505999	1.001275
465.877845	1.001655
466.249631	1.001134
466.621358	0.999992
466.993026	1.000576
467.364634	1.001105
467.736184	1.001380
468.107674	1.001573
468.479105	1.001010
468.850477	1.000903
469.221790	1.001326
469.593043	1.000650
469.964238	1.000960
470.335373	1.000241
470.706449	1.000392
471.077467	1.001047
471.448425	1.000517
471.819324	1.000645
472.190164	1.000985
472.560945	1.000811
472.931667	1.000605
473.302330	1.000903
473.672934	1.001435
474.043479	1.000529
474.413965	1.000893
474.784393	1.000635
475.154761	1.000930
475.525070	1.001294
475.895321	1.000885
476.265513	1.001487
476.635645	1.001411
477.005719	1.000964
477.375734	1.000492
477.745691	1.001055
478.115588	1.000698
478.485427	1.001364
478.855207	1.000907
479.224928	1.000822
479.594591	1.001263
479.964194	1.001074
480.333739	1.001482
480.703226	1.001076
481.072653	1.000328
481.442022	1.001233
481.811333	1.001069
482.180584	1.000895
482.549777	1.000839
482.918912	1.001203
483.287988	1.001023
483.657005	1.000563
484.025964	1.001247
484.394864	1.001009
484.763706	1.000776
485.132489	1.001023
485.501213	1.000964
485.869879	1.000889
486.238487	0.999969
486.607036	1.001657
486.975527	1.000999
487.343959	1.000838
487.712333	1.001220
488.080648	1.001019
488.448905	1.001121
488.817104	1.000163
489.185244	1.001330
489.553326	1.000126
489.921350	1.000964
490.289315	1.001171
490.657222	1.000020
491.025070	1.001035
491.392861	1.000839
491.760593	1.000517
492.128267	1.000452
492.495883	0.999926
492.863440	1.000714
493.230939	1.000347
493.598380	1.001158
493.965763	1.000355
494.333088	1.000188
494.700354	1.000410
495.067563	0.999931
495.434713	1.000913
495.801805	1.000444
496.168839	1.001101
496.535815	1.000862
496.902733	1.000935
497.269593	0.999965
497.636395	1.000197
498.003139	1.000636
498.369825	1.001239
498.736453	1.001021
499.103023	1.000917
499.469535	1.000917
499.835989	1.000798
500.202385	1.000495
500.568723	1.000637
500.935003	1.001166
501.301226	1.000945
501.667390	1.000470
502.033497	1.000374
502.399546	1.000978
502.765537	1.001261
503.131470	1.000757
503.497345	1.000911
503.863163	1.000758
504.228923	1.000364
504.594625	1.000769
504.960269	1.000851
505.325856	1.001698
505.691385	1.000518
506.056856	1.000260
506.422270	1.000824
506.787625	1.001152
507.152924	1.001065
507.518164	1.000687
507.883347	1.000098
508.248472	1.000807
508.613540	1.000186
508.978550	1.000509
509.343503	1.000346
509.708398	1.000857
510.073236	1.000763
510.438016	0.999995
510.802738	1.000038
511.167403	1.001134
511.532010	1.001478
511.896561	1.001320
512.261053	1.000662
512.625488	1.000834
512.989866	1.000730
513.354186	1.000534
513.718449	1.001032
514.082655	0.999823
514.446803	1.000525
514.810894	1.001262
515.174927	1.001187
515.538904	1.000671
515.902822	1.001189
516.266684	1.001062
516.630488	1.000800
516.994235	1.001098
517.357925	1.001565
517.721558	1.000786
518.085133	1.000270
518.448651	1.000366
518.812112	1.001339
519.175516	1.000834
519.538863	1.000696
519.902152	1.001077
520.265385	1.000476
520.628560	1.000716
520.991678	1.000418
521.354739	1.001142
521.717743	1.000826
522.080690	1.000636
522.443580	1.001125
522.806413	1.000513
523.169189	1.001282
523.531908	1.000703
523.894569	1.001117
524.257174	1.000814
524.619722	1.001062
524.982213	1.001105
525.344647	1.000614
525.707025	1.000284
526.069345	1.000656
526.431608	1.000750
526.793815	1.000962
527.155964	1.001898
527.518057	1.001051
527.880093	1.000982
528.242072	1.001037
528.603995	1.000768
528.965860	1.001066
529.327669	1.000992
529.689421	1.000418
530.051117	1.000613
530.412755	1.000600
530.774337	1.000879
531.135862	1.001300
531.497331	1.000307
531.858743	1.001177
532.220098	1.000284
532.581396	1.001109
532.942638	1.001183
533.303824	1.001722
533.664953	1.000568
534.026025	1.001137
534.387040	1.000831
534.747999	1.000469
535.108902	1.000673
535.469748	1.001668
535.830537	1.000795
536.191270	1.000902
536.551947	1.000332
536.912567	1.001081
537.273131	1.001025
537.633638	1.000237
537.994089	1.000759
538.354483	1.000824
538.714821	1.000901
539.075103	1.000798
539.435328	1.001326
539.795497	1.000876
540.155609	1.000992
540.515665	1.000588
540.875665	1.000963
541.235609	1.000513
541.595496	1.000774
541.955328	1.000956
542.315102	1.000365
542.674821	1.000942
543.034483	1.000610
543.394090	1.000360
543.753640	1.000988
544.113134	1.000431
544.472571	1.001279
544.831953	1.001288
545.191278	1.000985
545.550548	1.000721
545.909761	1.000224
546.268918	1.001360
546.628019	1.001614
546.987064	1.001188
547.346053	1.000659
547.704986	1.000361
548.063863	1.000988
548.422684	1.001426
548.781449	1.001647
549.140158	1.001730
549.498811	1.000766
549.857408	0.999934
550.215949	0.999920
550.574434	1.000863
550.932864	1.001506
551.291237	1.000537
551.649555	1.001666
552.007817	1.000868
552.366022	1.001137
552.724173	1.001027
553.082267	1.000523
553.440305	1.001157
553.798288	1.000202
554.156215	1.000823
554.514086	1.001372
554.871902	1.000782
555.229661	1.000283
555.587365	1.001206
555.945014	1.001121
556.302606	1.000385
556.660143	1.000492
557.017625	1.000621
557.375050	1.000581
557.732421	1.001052
558.089735	1.000762
558.446994	1.000119
558.804197	1.000280
559.161345	1.000306
559.518437	1.000764
559.875474	1.001000
560.232455	1.000788
560.589381	1.001262
560.946251	1.000266
561.303065	1.000786
561.659825	1.000692
562.016528	1.000813
562.373177	1.000203
562.729770	1.000896
563.086307	1.000201
563.442789	1.000943
563.799216	1.000124
564.155587	1.000567
564.511904	1.001353
564.868164	1.000201
565.224370	1.000734
565.580520	1.000772
565.936615	1.000677
566.292654	1.000890
566.648638	1.001315
567.004567	1.001180
567.360441	1.000907
567.716260	1.000666
568.072023	1.000422
568.427732	1.001099
568.783385	1.000833
569.138982	1.000634
569.494525	1.000686
569.850013	1.001414
570.205445	1.000217
570.560823	1.000790
570.916145	1.001230
571.271412	1.001044
571.626625	1.000889
571.981782	1.001140
572.336884	1.000940
572.691931	1.000699
573.046923	1.001202
573.401860	1.000509
573.756743	1.001374
574.111570	1.000566
574.466342	1.001416
574.821059	1.000206
575.175722	1.001742
575.530330	1.000594
575.884882	1.000636
576.239380	1.000374
576.593823	1.000829
576.948211	1.001020
577.302544	1.000801
577.656823	1.000584
578.011047	1.000464
578.365216	1.001489
578.719330	1.001033
579.073389	1.000154
579.427394	1.000910
579.781344	1.001374
580.135239	0.999865
580.489080	1.001044
580.842866	1.000881
581.196597	1.000004
581.550273	1.000119
581.903895	1.001154
582.257463	1.000148
582.610975	1.000370
582.964434	1.001818
583.317837	1.001082
583.671186	1.000906
584.024481	1.000755
584.377721	0.999482
584.730906	1.000278
585.084037	1.001493
585.437113	1.001415
585.790135	1.000358
586.143103	1.000297
586.496016	1.000248
586.848874	1.000683
587.201679	1.000393
587.554428	1.000618
587.907124	1.000884
588.259765	1.001318
588.612352	1.000713
588.964884	1.001591
589.317362	1.000250
589.669786	1.000787
590.022155	1.000017
590.374470	1.000909
590.726731	1.000265
591.078937	1.000752
591.431090	1.000194
591.783188	0.999991
592.135232	1.001661
592.487222	1.000622
592.839157	1.000248
593.191038	1.000842
593.542866	1.000837
593.894639	0.999913
594.246358	1.001181
594.598022	1.000628
594.949633	1.000735
595.301190	1.000654
595.652692	0.999821
596.004141	1.000265
596.355535	0.999955
596.706876	1.000413
597.058162	1.000205
597.409395	1.000501
597.760573	1.000083
598.111698	1.000753
598.462768	1.000003
598.813785	1.000135
599.164748	1.000574
599.515657	1.000524
599.866511	1.000972
600.217312	1.001099
600.568060	1.000289
600.918753	1.001296
601.269392	1.000880
601.619978	1.000820
601.970510	1.000347
602.320988	1.000103
602.671412	1.000672
603.021783	1.001498
603.372100	1.001726
603.722363	1.000607
604.072572	1.000722
604.422728	1.000200
604.772830	1.000633
605.122878	1.000879
605.472872	1.001157
605.822813	0.999941
606.172701	1.000746
606.522534	1.000729
606.872314	1.001286
607.222041	1.000768
607.571714	1.000617
607.921333	1.000113
608.270899	1.000211
608.620411	1.000705
608.969870	1.001217
609.319276	1.000873
609.668627	1.001399
610.017926	0.999425
610.367171	1.000867
610.716362	1.000113
611.065500	1.000825
611.414585	1.000061
611.763616	0.999593
612.112594	1.000570
612.461518	1.000703
612.810389	1.000367
613.159207	1.000606
613.507971	0.999899
613.856682	1.000817
614.205340	0.999619
614.553945	1.001196
614.902496	1.000164
615.250994	1.000138
615.599439	1.000395
615.947830	0.999695
616.296169	1.000153
616.644454	1.000595
616.992686	1.000615
617.340864	1.001302
617.688990	0.999753
618.037063	1.001173
618.385082	1.000226
618.733048	1.000293
619.080961	1.000776
619.428821	1.000854
619.776628	0.999604
620.124382	1.001601
620.472083	1.000557
620.819731	1.001515
621.167326	1.000079
621.514868	1.001103
621.862357	1.000557
622.209793	1.000244
622.557176	1.000261
622.904506	1.000464
623.251783	0.999689
623.599007	1.001066
623.946179	0.999825
624.293297	1.000827
624.640363	1.000733
624.987376	0.999362
625.334336	1.000691
625.681243	1.001557
626.028097	1.001033
626.374899	1.000711
626.721647	1.001755
627.068343	1.000266
627.414987	1.000483
627.761577	0.999409
628.108115	1.000203
628.454600	1.000712
628.801032	1.001075
629.147412	1.000257
629.493739	1.001401
629.840014	1.000620
630.186236	0.999871
630.532405	1.001028
630.878521	0.999516
631.224585	1.000331
631.570597	0.999731
631.916556	0.999917
632.262462	0.998915
632.608316	1.001246
632.954117	0.999570
633.299866	0.999752
633.645562	1.000762
633.991206	0.999983
634.336797	1.000240
634.682336	0.999941
635.027823	1.000023
635.373257	1.000149
635.718639	1.000404
636.063968	1.000578
636.409245	1.000635
636.754470	1.000657
637.099642	1.000681
637.444762	1.000984
637.789829	1.000304
638.134845	1.000077
638.479808	1.000241
638.824719	1.000463
639.169577	1.000007
639.514383	1.000081
639.859137	1.000674
640.203839	1.000489
640.548489	0.999838
640.893086	0.999888
641.237632	1.000905
641.582125	1.000359
641.926566	1.000399
642.270955	1.000851
642.615292	0.999951
642.959576	0.999643
643.303809	1.000980
643.647990	1.000713
643.992118	1.001639
644.336195	0.999640
644.680219	1.000436
645.024192	1.000075
645.368112	0.999942
645.711981	0.999160
646.055797	1.000490
646.399562	0.999819
646.743274	1.000188
647.086935	1.000138
647.430544	1.000413
647.774101	0.999865
648.117606	1.000472
648.461059	1.000817
648.804460	0.999910
649.147810	1.000052
649.491108	0.999939
649.834354	0.999793
650.177548	1.000334
650.520690	1.000452
650.863781	0.999557
651.206820	0.999745
651.549807	0.999293
651.892742	1.000746
652.235626	1.000459
652.578458	0.999840
652.921238	1.000321
653.263967	1.000529
653.606644	1.000496
653.949269	1.001328
654.291843	0.999518
654.634365	1.000788
654.976836	0.999487
655.319255	1.000498
655.661622	1.000381
656.003938	0.999961
656.346203	1.000183
656.688416	1.000047
657.030577	0.999458
657.372687	1.000321
657.714746	0.999818
658.056753	0.999184
658.398708	0.999610
658.740612	1.000777
659.082465	1.000294
659.424266	1.000101
659.766016	0.999991
660.107715	1.000124
660.449362	0.999948
660.790958	0.998990
661.132503	1.000734
661.473996	0.999565
661.815438	1.000062
662.156829	0.999995
662.498168	1.001303
662.839456	0.999454
663.180693	0.999961
663.521879	1.000417
663.863013	0.999800
664.204097	0.999849
664.545129	1.000002
664.886110	1.000387
665.227040	0.999466
665.567918	0.999692
665.908746	0.999494
666.249522	0.999058
666.590248	0.999484
666.930922	0.999431
667.271545	0.999804
667.612118	0.999552
667.952639	0.999984
668.293109	0.998984
668.633528	0.999935
668.973896	1.000292
669.314213	0.998723
669.654480	0.999314
669.994695	0.999246
670.334859	0.999258
670.674973	0.999499
671.015035	0.999774
671.355047	1.000074
671.695008	0.999518
672.034918	0.999630
672.374777	0.999775
672.714585	0.999621
673.054342	1.000006
673.394049	0.999911
673.733705	0.999646
674.073310	1.000179
674.412864	0.999567
674.752368	0.999334
675.091820	1.000655
675.431223	1.000496
675.770574	0.999083
676.109875	0.999861
676.449125	0.999568
676.788324	0.999358
677.127473	1.000634
677.466571	0.999920
677.805619	1.000097
678.144616	1.000244
678.483562	0.999907
678.822458	1.000425
679.161303	0.999031
679.500098	1.000596
679.838842	0.999974
680.177535	0.999711
680.516179	0.998544
680.854771	0.999398
681.193314	0.999626
681.531805	0.999995
681.870247	0.999703
682.208638	1.000328
682.546978	0.998909
682.885268	0.999433
683.223508	0.998615
683.561697	0.998979
683.899836	0.999711
684.237925	0.998767
684.575963	0.999069
684.913951	0.999776
685.251889	0.999775
685.589776	0.999164
685.927614	0.999664
686.265401	0.999309
686.603137	0.999551
686.940824	0.999605
687.278460	0.999295
687.616046	0.999117
687.953582	0.999437
688.291068	1.000055
688.628504	0.999094
