Dividing Wavelength (nm)	Counts (n)	Blue Motor Position (mm): 43.700000	Red Motor Position (mm): 0.000000	
326.493990	1.000399
326.888308	1.000399
327.282561	1.000399
327.676750	1.000985
328.070874	1.000651
328.464933	1.001481
328.858929	1.001006
329.252859	0.999223
329.646726	0.999588
330.040528	1.000172
330.434265	1.001681
330.827938	0.999783
331.221547	1.000301
331.615091	1.000359
332.008571	1.001440
332.401986	1.000531
332.795338	1.000322
333.188625	1.000484
333.581847	1.000631
333.975006	1.000196
334.368100	0.999620
334.761129	0.999489
335.154095	1.000560
335.546996	1.000121
335.939833	0.999218
336.332606	0.999965
336.725315	0.999512
337.117960	1.000201
337.510540	0.999155
337.903056	1.000334
338.295508	1.001397
338.687896	1.000347
339.080220	1.001314
339.472480	1.000581
339.864676	1.000383
340.256807	0.998375
340.648875	1.000544
341.040879	1.001161
341.432818	1.000891
341.824694	0.999275
342.216506	1.001416
342.608253	0.999455
342.999937	1.001098
343.391557	0.999565
343.783113	1.001021
344.174605	1.000146
344.566033	0.999027
344.957397	1.001516
345.348697	1.000862
345.739934	1.000419
346.131106	1.000577
346.522215	0.999466
346.913260	1.000246
347.304241	0.999408
347.695159	1.000754
348.086012	1.000920
348.476802	1.000645
348.867528	1.001096
349.258191	1.000981
349.648789	0.999891
350.039324	1.000185
350.429796	1.000400
350.820203	0.999269
351.210548	0.999530
351.600828	1.000446
351.991045	0.999444
352.381198	1.000345
352.771288	0.999121
353.161314	0.999890
353.551276	0.999501
353.941175	0.998839
354.331010	0.999658
354.720782	1.000138
355.110490	1.001142
355.500135	1.001408
355.889717	0.998573
356.279235	0.999438
356.668689	1.000378
357.058080	1.000364
357.447408	0.999323
357.836672	1.000450
358.225873	0.999703
358.615010	0.998879
359.004084	0.999695
359.393095	1.000189
359.782043	0.998994
360.170927	1.000939
360.559748	0.999286
360.948505	0.999085
361.337199	0.999564
361.725830	1.000135
362.114398	0.999408
362.502903	0.999100
362.891344	0.998984
363.279722	1.000157
363.668037	0.999582
364.056289	0.998322
364.444478	1.000296
364.832603	0.999437
365.220665	1.000321
365.608665	0.999243
365.996601	0.999682
366.384474	0.998673
366.772284	0.999282
367.160031	0.997785
367.547715	0.998762
367.935336	0.996664
368.322893	0.997232
368.710388	0.996236
369.097820	0.993851
369.485189	0.991935
369.872495	0.990950
370.259738	0.988623
370.646918	0.984742
371.034035	0.982802
371.421090	0.980210
371.808081	0.974833
372.195010	0.973424
372.581875	0.966777
372.968678	0.962330
373.355418	0.960013
373.742096	0.952271
374.128710	0.946839
374.515262	0.944326
374.901751	0.937987
375.288177	0.933439
375.674540	0.926596
376.060841	0.920286
376.447079	0.913230
376.833254	0.906901
377.219367	0.903982
377.605417	0.892636
377.991404	0.890428
378.377329	0.885428
378.763191	0.879479
379.148991	0.872164
379.534727	0.867266
379.920402	0.861808
380.306013	0.860136
380.691563	0.851248
381.077049	0.847025
381.462474	0.846980
381.847835	0.840905
382.233134	0.839763
382.618371	0.843027
383.003545	0.833179
383.388657	0.835020
383.773706	0.833123
384.158693	0.834659
384.543618	0.835430
384.928480	0.833198
385.313280	0.830959
385.698017	0.835230
386.082692	0.833887
386.467305	0.839124
386.851856	0.842115
387.236344	0.844023
387.620770	0.848223
388.005133	0.850423
388.389435	0.853866
388.773674	0.859926
389.157851	0.862634
389.541965	0.868241
389.926018	0.877576
390.310008	0.878482
390.693936	0.885077
391.077802	0.888539
391.461606	0.894586
391.845348	0.898742
392.229027	0.905009
392.612645	0.909169
392.996200	0.912981
393.379694	0.915983
393.763125	0.920690
394.146494	0.927391
394.529801	0.931223
394.913047	0.935824
395.296230	0.942298
395.679351	0.946792
396.062410	0.951162
396.445408	0.956777
396.828343	0.960716
397.211217	0.963420
397.594028	0.968618
397.976778	0.971453
398.359466	0.974977
398.742092	0.977845
399.124656	0.979374
399.507158	0.981628
399.889598	0.984575
400.271977	0.987712
400.654294	0.987487
401.036549	0.989807
401.418742	0.991243
401.800874	0.992891
402.182944	0.992120
402.564952	0.994090
402.946898	0.994771
403.328783	0.995448
403.710606	0.997105
404.092367	0.997101
404.474067	0.999079
404.855705	0.998694
405.237282	0.998687
405.618797	0.999012
406.000250	0.998021
406.381642	0.998445
406.762972	1.000053
407.144240	0.999270
407.525447	0.998324
407.906593	0.999444
408.287677	0.999136
408.668700	0.999980
409.049661	1.000042
409.430560	0.998689
409.811399	0.999636
410.192176	1.000174
410.572891	1.000816
410.953545	0.999782
411.334138	1.000100
411.714669	1.000012
412.095139	1.000032
412.475547	1.000245
412.855894	1.000325
413.236180	1.000637
413.616405	1.000429
413.996568	0.999858
414.376670	1.000909
414.756711	1.000379
415.136691	1.000565
415.516609	1.000613
415.896466	1.000777
416.276262	0.999779
416.655997	1.000709
417.035670	1.000617
417.415283	1.000940
417.794834	1.000943
418.174324	1.000838
418.553753	1.000142
418.933121	0.999961
419.312428	1.001877
419.691674	1.000922
420.070859	1.001157
420.449983	1.001147
420.829045	1.000607
421.208047	1.000935
421.586988	1.000235
421.965867	0.999399
422.344686	0.999585
422.723444	0.999802
423.102141	1.000790
423.480777	1.000085
423.859352	1.000201
424.237866	1.000230
424.616319	1.000339
424.994712	1.001226
425.373044	1.000561
425.751314	1.000835
426.129524	1.001087
426.507673	0.999061
426.885762	1.000352
427.263789	1.000385
427.641756	1.000117
428.019662	1.001053
428.397508	1.000747
428.775292	1.000279
429.153016	1.000380
429.530679	1.000985
429.908282	1.000828
430.285824	0.999870
430.663305	1.000207
431.040726	1.000675
431.418086	1.000220
431.795385	1.001421
432.172624	1.001501
432.549802	1.000856
432.926920	1.001096
433.303977	0.999556
433.680974	1.001555
434.057910	1.000656
434.434786	1.000271
434.811601	1.001352
435.188355	1.001940
435.565050	1.001192
435.941683	1.000851
436.318257	1.000415
436.694770	1.000689
437.071222	1.001212
437.447614	1.000250
437.823946	1.000798
438.200218	1.000804
438.576429	0.999751
438.952580	1.000804
439.328670	1.000138
439.704700	1.000381
440.080670	1.001059
440.456580	1.000878
440.832429	1.000251
441.208218	1.001372
441.583947	1.000833
441.959616	0.999525
442.335224	1.001414
442.710773	1.001038
443.086261	1.001099
443.461689	0.999908
443.837057	1.000768
444.212365	1.001155
444.587612	1.001166
444.962800	1.000874
445.337927	1.000970
445.712995	1.000939
446.088002	1.000450
446.462949	1.001272
446.837837	1.001878
447.212664	1.000740
447.587431	1.001037
447.962139	1.000556
448.336786	1.000038
448.711374	1.001400
449.085901	1.000326
449.460369	1.001408
449.834776	1.000794
450.209124	1.000343
450.583412	1.001086
450.957640	1.000442
451.331808	1.002005
451.705917	1.000104
452.079965	1.001650
452.453954	1.001285
452.827883	1.000908
453.201752	1.001555
453.575562	1.000900
453.949311	1.001211
454.323001	1.001125
454.696632	1.000457
455.070202	1.000569
455.443713	1.000885
455.817164	1.000748
456.190556	1.000502
456.563888	1.001486
456.937160	1.001110
457.310373	1.000796
457.683526	1.000942
458.056619	1.000806
458.429653	1.000344
458.802628	1.001238
459.175542	1.001501
459.548398	1.000629
459.921194	1.000704
460.293930	1.002189
460.666607	1.001639
461.039224	1.000810
461.411782	1.000624
461.784280	1.000202
462.156719	1.001234
462.529099	1.001159
462.901419	1.000507
463.273680	0.999876
463.645882	1.000183
464.018024	1.002085
464.390106	1.000541
464.762130	1.001095
465.134094	1.001183
465.505999	1.001593
465.877845	1.000327
466.249631	1.000278
466.621358	1.000097
466.993026	1.000754
467.364634	1.000731
467.736184	1.000918
468.107674	1.000039
468.479105	1.000935
468.850477	1.001018
469.221790	1.001109
469.593043	1.000830
469.964238	1.001190
470.335373	1.000660
470.706449	1.001098
471.077467	1.000944
471.448425	1.000863
471.819324	1.000759
472.190164	1.000604
472.560945	1.000786
472.931667	1.001523
473.302330	1.001300
473.672934	1.001626
474.043479	1.000129
474.413965	1.001665
474.784393	1.001635
475.154761	1.000258
475.525070	1.001137
475.895321	1.000703
476.265513	1.001762
476.635645	1.001275
477.005719	1.000856
477.375734	1.000332
477.745691	1.000197
478.115588	1.000778
478.485427	1.001342
478.855207	1.000913
479.224928	1.000832
479.594591	1.001493
479.964194	1.001156
480.333739	1.001040
480.703226	1.000332
481.072653	1.000523
481.442022	1.001150
481.811333	1.000920
482.180584	1.000834
482.549777	1.001259
482.918912	1.000602
483.287988	1.000840
483.657005	1.000588
484.025964	1.000818
484.394864	1.000954
484.763706	1.000843
485.132489	1.000577
485.501213	1.001295
485.869879	1.001655
486.238487	1.000605
486.607036	1.001445
486.975527	1.001541
487.343959	1.000594
487.712333	1.000772
488.080648	1.000648
488.448905	1.001782
488.817104	1.001365
489.185244	1.000750
489.553326	1.000905
489.921350	1.000989
490.289315	1.000749
490.657222	1.000682
491.025070	1.001466
491.392861	1.001125
491.760593	1.001419
492.128267	1.000927
492.495883	1.000935
492.863440	1.000531
493.230939	1.001401
493.598380	1.000990
493.965763	1.000976
494.333088	1.000189
494.700354	1.000492
495.067563	1.000541
495.434713	1.000385
495.801805	1.000768
496.168839	1.000676
496.535815	1.000937
496.902733	1.000205
497.269593	1.000594
497.636395	0.999981
498.003139	1.000335
498.369825	1.001279
498.736453	1.000993
499.103023	1.001119
499.469535	1.000788
499.835989	1.000932
500.202385	1.000311
500.568723	1.000846
500.935003	1.001082
501.301226	1.000765
501.667390	1.000711
502.033497	1.001006
502.399546	1.000585
502.765537	1.000561
503.131470	1.000579
503.497345	1.001125
503.863163	1.000852
504.228923	1.000363
504.594625	1.000681
504.960269	1.001249
505.325856	1.001521
505.691385	1.001090
506.056856	1.001121
506.422270	1.001491
506.787625	1.001398
507.152924	1.001151
507.518164	1.000628
507.883347	1.000509
508.248472	1.000604
508.613540	1.000819
508.978550	1.001227
509.343503	1.000962
509.708398	1.000959
510.073236	1.001347
510.438016	1.000146
510.802738	1.000628
511.167403	1.000501
511.532010	1.001412
511.896561	1.001198
512.261053	1.001067
512.625488	1.001032
512.989866	1.001082
513.354186	1.000998
513.718449	1.001047
514.082655	1.000532
514.446803	1.000534
514.810894	1.001031
515.174927	1.000927
515.538904	1.001451
515.902822	1.000670
516.266684	1.001110
516.630488	1.000797
516.994235	1.000843
517.357925	1.000973
517.721558	1.000654
518.085133	1.001110
518.448651	1.001824
518.812112	1.001612
519.175516	1.001179
519.538863	1.000496
519.902152	1.001287
520.265385	1.001243
520.628560	1.000404
520.991678	1.000782
521.354739	1.001326
521.717743	1.000599
522.080690	1.000259
522.443580	1.001655
522.806413	1.000711
523.169189	1.001253
523.531908	1.001027
523.894569	1.000822
524.257174	1.000809
524.619722	1.000754
524.982213	1.001103
525.344647	1.000544
525.707025	1.000309
526.069345	1.000841
526.431608	1.000930
526.793815	1.001304
527.155964	1.001789
527.518057	1.000734
527.880093	1.000869
528.242072	1.000475
528.603995	1.001059
528.965860	1.001668
529.327669	1.001806
529.689421	1.000428
530.051117	1.000933
530.412755	1.001259
530.774337	1.000713
531.135862	1.001137
531.497331	1.000717
531.858743	1.001514
532.220098	1.000506
532.581396	1.000563
532.942638	1.001463
533.303824	1.001811
533.664953	1.000583
534.026025	1.002074
534.387040	1.001142
534.747999	1.000710
535.108902	1.001083
535.469748	1.001182
535.830537	1.001112
536.191270	1.001095
536.551947	1.000675
536.912567	1.001002
537.273131	1.000964
537.633638	1.000861
537.994089	1.000662
538.354483	1.001121
538.714821	1.001133
539.075103	1.001010
539.435328	1.001134
539.795497	1.001423
540.155609	1.001037
540.515665	1.001028
540.875665	1.000974
541.235609	1.001755
541.595496	1.001214
541.955328	1.001029
542.315102	1.001302
542.674821	1.001204
543.034483	1.001276
543.394090	1.000384
543.753640	1.001594
544.113134	1.001094
544.472571	1.001452
544.831953	1.001322
545.191278	1.001652
545.550548	1.000834
545.909761	1.000758
546.268918	1.001905
546.628019	1.001401
546.987064	1.000844
547.346053	1.000504
547.704986	1.001280
548.063863	1.000859
548.422684	1.000765
548.781449	1.001428
549.140158	1.001058
549.498811	1.000502
549.857408	1.000885
550.215949	1.000448
550.574434	1.000597
550.932864	1.001167
551.291237	1.000880
551.649555	1.001726
552.007817	1.001059
552.366022	1.002143
552.724173	1.001799
553.082267	1.000937
553.440305	1.000725
553.798288	1.000700
554.156215	1.001051
554.514086	1.001236
554.871902	1.000780
555.229661	1.000805
555.587365	1.001140
555.945014	1.001641
556.302606	1.001159
556.660143	1.001459
557.017625	1.001272
557.375050	1.000696
557.732421	1.001368
558.089735	1.000081
558.446994	1.000559
558.804197	1.001789
559.161345	1.000249
559.518437	1.000696
559.875474	1.001753
560.232455	1.001193
560.589381	1.001150
560.946251	1.001519
561.303065	1.000843
561.659825	0.999920
562.016528	1.001218
562.373177	1.001010
562.729770	1.000523
563.086307	1.000380
563.442789	1.000514
563.799216	0.999974
564.155587	1.000944
564.511904	1.001655
564.868164	1.000231
565.224370	1.001055
565.580520	1.000971
565.936615	1.001381
566.292654	1.001019
566.648638	1.001455
567.004567	1.001161
567.360441	1.001004
567.716260	1.001089
568.072023	1.000243
568.427732	1.001154
568.783385	1.000779
569.138982	1.000954
569.494525	1.000868
569.850013	1.001551
570.205445	1.001329
570.560823	1.001403
570.916145	1.000568
571.271412	1.000995
571.626625	1.000994
571.981782	1.000831
572.336884	1.001035
572.691931	1.000484
573.046923	1.001629
573.401860	1.001069
573.756743	1.000981
574.111570	1.000928
574.466342	1.001556
574.821059	1.000239
575.175722	1.001273
575.530330	1.001653
575.884882	1.000915
576.239380	1.001279
576.593823	1.000805
576.948211	1.000747
577.302544	1.001347
577.656823	1.001547
578.011047	1.000972
578.365216	1.001466
578.719330	1.001153
579.073389	1.000082
579.427394	1.000635
579.781344	1.001825
580.135239	1.000247
580.489080	1.001118
580.842866	1.000818
581.196597	1.001508
581.550273	1.000515
581.903895	1.001199
582.257463	1.000766
582.610975	1.000773
582.964434	1.001009
583.317837	1.001180
583.671186	1.001133
584.024481	1.000697
584.377721	1.000512
584.730906	1.001250
585.084037	1.002218
585.437113	1.002088
585.790135	1.001339
586.143103	1.001422
586.496016	1.001219
586.848874	1.001099
587.201679	1.001271
587.554428	1.001073
587.907124	1.001221
588.259765	1.001385
588.612352	1.001679
588.964884	1.001224
589.317362	1.000504
589.669786	1.000370
590.022155	1.000164
590.374470	1.000948
590.726731	1.000501
591.078937	1.001291
591.431090	1.001423
591.783188	1.000181
592.135232	1.001725
592.487222	1.001545
592.839157	1.000605
593.191038	1.000616
593.542866	1.000810
593.894639	0.999971
594.246358	1.001179
594.598022	1.001550
594.949633	1.000647
595.301190	1.000974
595.652692	1.000168
596.004141	1.000443
596.355535	1.000808
596.706876	1.000781
597.058162	1.000992
597.409395	1.000267
597.760573	1.000097
598.111698	1.000814
598.462768	1.001308
598.813785	1.000605
599.164748	1.000567
599.515657	1.000697
599.866511	1.000926
600.217312	1.001722
600.568060	1.000127
600.918753	1.001420
601.269392	1.001291
601.619978	1.001096
601.970510	1.001154
602.320988	1.000847
602.671412	1.000607
603.021783	1.001687
603.372100	1.001361
603.722363	1.001615
604.072572	1.001165
604.422728	1.000279
604.772830	1.001141
605.122878	1.001456
605.472872	1.001578
605.822813	1.000892
606.172701	1.000990
606.522534	1.001538
606.872314	1.001835
607.222041	1.000494
607.571714	1.000808
607.921333	1.001068
608.270899	1.001087
608.620411	1.000744
608.969870	1.001295
609.319276	1.001046
609.668627	1.001204
610.017926	1.000797
610.367171	1.001241
610.716362	1.000804
611.065500	1.000313
611.414585	1.000787
611.763616	0.999925
612.112594	1.000200
612.461518	0.999993
612.810389	1.001108
613.159207	1.000114
613.507971	1.000906
613.856682	1.001431
614.205340	0.999564
614.553945	1.001024
614.902496	1.000858
615.250994	1.000586
615.599439	1.000939
615.947830	1.000224
616.296169	1.000477
616.644454	1.000981
616.992686	1.000747
617.340864	1.001226
617.688990	1.000697
618.037063	1.000791
618.385082	1.001072
618.733048	1.000071
619.080961	1.001182
619.428821	1.001002
619.776628	0.998832
620.124382	1.001798
620.472083	1.000930
620.819731	1.001792
621.167326	1.001511
621.514868	1.001231
621.862357	1.000616
622.209793	1.000995
622.557176	1.000822
622.904506	1.000107
623.251783	1.000290
623.599007	1.001320
623.946179	1.000590
624.293297	1.001404
624.640363	1.001328
624.987376	1.000737
625.334336	1.001298
625.681243	1.000692
626.028097	1.000985
626.374899	1.000768
626.721647	1.001484
627.068343	1.000739
627.414987	1.001181
627.761577	1.000638
628.108115	1.000456
628.454600	1.000328
628.801032	1.000847
629.147412	1.000574
629.493739	1.001662
629.840014	1.001270
630.186236	1.000335
630.532405	1.000180
630.878521	1.000430
631.224585	1.001367
631.570597	1.000443
631.916556	1.000752
632.262462	1.000119
632.608316	1.001217
632.954117	1.000505
633.299866	1.000344
633.645562	1.000807
633.991206	1.001756
634.336797	1.000261
634.682336	1.001259
635.027823	1.001053
635.373257	1.000638
635.718639	1.001204
636.063968	1.001170
636.409245	0.999870
636.754470	1.001246
637.099642	1.001176
637.444762	1.001487
637.789829	1.000798
638.134845	0.999951
638.479808	1.001055
638.824719	1.001785
639.169577	1.000935
639.514383	1.000912
639.859137	1.001093
640.203839	1.000511
640.548489	1.000488
640.893086	1.000442
641.237632	1.000966
641.582125	1.000543
641.926566	1.001843
642.270955	1.000935
642.615292	1.000400
642.959576	1.001064
643.303809	1.001709
643.647990	1.000806
643.992118	1.001386
644.336195	0.999938
644.680219	1.000426
645.024192	1.000216
645.368112	0.999760
645.711981	1.000434
646.055797	1.000346
646.399562	1.000123
646.743274	1.000963
647.086935	0.999636
647.430544	1.000289
647.774101	0.999451
648.117606	1.000982
648.461059	1.001172
648.804460	1.000897
649.147810	1.000472
649.491108	0.999896
649.834354	1.000085
650.177548	1.000748
650.520690	1.000393
650.863781	0.999973
651.206820	1.000846
651.549807	1.000136
651.892742	1.000742
652.235626	1.000177
652.578458	1.000815
652.921238	1.001021
653.263967	1.001135
653.606644	1.000180
653.949269	1.001266
654.291843	0.999501
654.634365	1.000616
654.976836	1.000349
655.319255	1.000946
655.661622	1.000115
656.003938	1.001062
656.346203	0.999631
656.688416	1.000912
657.030577	0.999977
657.372687	1.000493
657.714746	1.000025
658.056753	1.000511
658.398708	0.999714
658.740612	1.000963
659.082465	1.000380
659.424266	1.000524
659.766016	0.999597
660.107715	1.001030
660.449362	0.999719
660.790958	1.000034
661.132503	1.000336
661.473996	0.999028
661.815438	1.000389
662.156829	1.000597
662.498168	1.000967
662.839456	0.999741
663.180693	1.000489
663.521879	1.000087
663.863013	1.000990
664.204097	1.000233
664.545129	1.000187
664.886110	1.000807
665.227040	1.000095
665.567918	0.999203
665.908746	0.999541
666.249522	0.999321
666.590248	0.999815
666.930922	0.999947
667.271545	1.000220
667.612118	1.000321
667.952639	1.000166
668.293109	1.000164
668.633528	0.999502
668.973896	1.000487
669.314213	0.999641
669.654480	0.999365
669.994695	0.999410
670.334859	0.999776
670.674973	0.999593
671.015035	0.999344
671.355047	0.999358
671.695008	0.999325
672.034918	0.999717
672.374777	0.999709
672.714585	0.999811
673.054342	1.000122
673.394049	0.999870
673.733705	1.000230
674.073310	0.999825
674.412864	1.000313
674.752368	0.999421
675.091820	1.001012
675.431223	1.001159
675.770574	0.998910
676.109875	0.999525
676.449125	0.999257
676.788324	0.999706
677.127473	1.000384
677.466571	0.999846
677.805619	0.999808
678.144616	1.000342
678.483562	1.000158
678.822458	0.999795
679.161303	0.999171
679.500098	1.000520
679.838842	1.000719
680.177535	0.999438
680.516179	0.999146
680.854771	0.999997
681.193314	1.000191
681.531805	0.999291
681.870247	0.999349
682.208638	0.999148
682.546978	0.999211
682.885268	0.999433
683.223508	0.999565
683.561697	0.999387
683.899836	0.999283
684.237925	0.999300
684.575963	0.999586
684.913951	0.998806
685.251889	0.999636
685.589776	0.999453
685.927614	0.999148
686.265401	0.999185
686.603137	0.999158
686.940824	0.999604
687.278460	1.000002
687.616046	0.999099
687.953582	0.999440
688.291068	0.999380
688.628504	0.999206
