Dividing Wavelength (nm)	Counts (n)	Blue Motor Position (mm): 48.000000	Red Motor Position (mm): 0.000000	
326.493990	0.998392
326.888308	0.998392
327.282561	0.998392
327.676750	1.000893
328.070874	1.000236
328.464933	1.001067
328.858929	1.001452
329.252859	1.000211
329.646726	1.000128
330.040528	0.999265
330.434265	0.999797
330.827938	0.999804
331.221547	1.000327
331.615091	1.001160
332.008571	1.002244
332.401986	0.999150
332.795338	1.000477
333.188625	1.001398
333.581847	0.998766
333.975006	0.999640
334.368100	1.000011
334.761129	0.999158
335.154095	1.000165
335.546996	0.999961
335.939833	0.998668
336.332606	1.000826
336.725315	0.998721
337.117960	1.001738
337.510540	0.998916
337.903056	1.000031
338.295508	1.000616
338.687896	1.000299
339.080220	1.000631
339.472480	0.999291
339.864676	1.000535
340.256807	0.998155
340.648875	1.001227
341.040879	1.000206
341.432818	1.001357
341.824694	1.000063
342.216506	1.000348
342.608253	1.000638
342.999937	1.000257
343.391557	1.000266
343.783113	1.001240
344.174605	1.000990
344.566033	0.999367
344.957397	0.999899
345.348697	1.000681
345.739934	1.000738
346.131106	0.999714
346.522215	0.999573
346.913260	0.999088
347.304241	0.999693
347.695159	0.999994
348.086012	0.999672
348.476802	1.000239
348.867528	0.999066
349.258191	0.999910
349.648789	1.000631
350.039324	1.000440
350.429796	1.000721
350.820203	0.998905
351.210548	1.000509
351.600828	0.999785
351.991045	1.000488
352.381198	0.999246
352.771288	1.000293
353.161314	1.001086
353.551276	1.000618
353.941175	0.998805
354.331010	1.000905
354.720782	1.000491
355.110490	1.000087
355.500135	1.000602
355.889717	0.998989
356.279235	0.999068
356.668689	1.000727
357.058080	1.000703
357.447408	0.998841
357.836672	0.999921
358.225873	0.998658
358.615010	0.999688
359.004084	0.998869
359.393095	1.000426
359.782043	0.999352
360.170927	0.999766
360.559748	0.998796
360.948505	1.000161
361.337199	0.999582
361.725830	0.999646
362.114398	0.999930
362.502903	0.999153
362.891344	0.999632
363.279722	0.999562
363.668037	1.000514
364.056289	0.998977
364.444478	1.000950
364.832603	1.000015
365.220665	0.999879
365.608665	0.999643
365.996601	0.999594
366.384474	0.998268
366.772284	0.999445
367.160031	0.998672
367.547715	0.999904
367.935336	0.997586
368.322893	0.996681
368.710388	0.996175
369.097820	0.994312
369.485189	0.994407
369.872495	0.992354
370.259738	0.992153
370.646918	0.989614
371.034035	0.988168
371.421090	0.986652
371.808081	0.983871
372.195010	0.984461
372.581875	0.981732
372.968678	0.980329
373.355418	0.979653
373.742096	0.976581
374.128710	0.976158
374.515262	0.976564
374.901751	0.974225
375.288177	0.973125
375.674540	0.973794
376.060841	0.972993
376.447079	0.972171
376.833254	0.971125
377.219367	0.972390
377.605417	0.969984
377.991404	0.971166
378.377329	0.972420
378.763191	0.970909
379.148991	0.970853
379.534727	0.971009
379.920402	0.971097
380.306013	0.972730
380.691563	0.973080
381.077049	0.973744
381.462474	0.975518
381.847835	0.975187
382.233134	0.977153
382.618371	0.979566
383.003545	0.978855
383.388657	0.981589
383.773706	0.982473
384.158693	0.983560
384.543618	0.986113
384.928480	0.985659
385.313280	0.987922
385.698017	0.987898
386.082692	0.989024
386.467305	0.990683
386.851856	0.992498
387.236344	0.992747
387.620770	0.994395
388.005133	0.994270
388.389435	0.995667
388.773674	0.995633
389.157851	0.996749
389.541965	0.998288
389.926018	0.997081
390.310008	0.998321
390.693936	0.999498
391.077802	0.999316
391.461606	0.998254
391.845348	0.999115
392.229027	0.998284
392.612645	0.998789
392.996200	1.000251
393.379694	0.998387
393.763125	0.999777
394.146494	0.999114
394.529801	0.999241
394.913047	0.998758
395.296230	1.000045
395.679351	0.999142
396.062410	0.999845
396.445408	1.000767
396.828343	1.000841
397.211217	1.000120
397.594028	0.999855
397.976778	1.001100
398.359466	1.000103
398.742092	1.000868
399.124656	0.999890
399.507158	0.999703
399.889598	1.000689
400.271977	1.001068
400.654294	0.999893
401.036549	1.001590
401.418742	1.000008
401.800874	1.000594
402.182944	0.999873
402.564952	0.999998
402.946898	1.000215
403.328783	1.001746
403.710606	1.000313
404.092367	1.000495
404.474067	1.001545
404.855705	1.001784
405.237282	1.000356
405.618797	1.000804
406.000250	1.000479
406.381642	0.999423
406.762972	1.001509
407.144240	1.000509
407.525447	0.999170
407.906593	1.000078
408.287677	1.000289
408.668700	1.000239
409.049661	1.000858
409.430560	1.000076
409.811399	1.000189
410.192176	1.000929
410.572891	1.001881
410.953545	0.999724
411.334138	1.000483
411.714669	1.000619
412.095139	1.000708
412.475547	1.002033
412.855894	1.000662
413.236180	1.000628
413.616405	1.000124
413.996568	1.001090
414.376670	1.000646
414.756711	1.000304
415.136691	1.001375
415.516609	0.999030
415.896466	1.000998
416.276262	1.000144
416.655997	1.000998
417.035670	1.001157
417.415283	1.000451
417.794834	1.000911
418.174324	1.001431
418.553753	1.000520
418.933121	1.001010
419.312428	1.001438
419.691674	1.001424
420.070859	1.001524
420.449983	1.000660
420.829045	1.000748
421.208047	1.001351
421.586988	1.000253
421.965867	0.999972
422.344686	1.000258
422.723444	1.000523
423.102141	1.001520
423.480777	1.000553
423.859352	1.001004
424.237866	1.000695
424.616319	1.001226
424.994712	1.001125
425.373044	1.000974
425.751314	1.001342
426.129524	1.000838
426.507673	1.000488
426.885762	1.000551
427.263789	1.000183
427.641756	1.000363
428.019662	1.001202
428.397508	1.001481
428.775292	1.000980
429.153016	1.000622
429.530679	1.000585
429.908282	1.001200
430.285824	1.000724
430.663305	1.001634
431.040726	1.000657
431.418086	1.001384
431.795385	1.002136
432.172624	1.001557
432.549802	1.000737
432.926920	1.001077
433.303977	1.000458
433.680974	1.001039
434.057910	1.000040
434.434786	1.000821
434.811601	1.000083
435.188355	1.001097
435.565050	1.002146
435.941683	1.000625
436.318257	0.999796
436.694770	1.000893
437.071222	1.000975
437.447614	1.000225
437.823946	1.000759
438.200218	1.000899
438.576429	1.000950
438.952580	1.001507
439.328670	1.000223
439.704700	1.000575
440.080670	1.000920
440.456580	1.000154
440.832429	1.000749
441.208218	1.001060
441.583947	1.000684
441.959616	0.999194
442.335224	1.001959
442.710773	1.001126
443.086261	1.001030
443.461689	1.000181
443.837057	1.000885
444.212365	1.001622
444.587612	1.001591
444.962800	1.001032
445.337927	1.001820
445.712995	1.000745
446.088002	1.001194
446.462949	1.001378
446.837837	1.001590
447.212664	1.000314
447.587431	1.001129
447.962139	1.001070
448.336786	1.000391
448.711374	1.001004
449.085901	1.001538
449.460369	1.001461
449.834776	1.000960
450.209124	1.001318
450.583412	1.000791
450.957640	1.000724
451.331808	1.001598
451.705917	1.000724
452.079965	1.001330
452.453954	1.002029
452.827883	1.001515
453.201752	1.001686
453.575562	1.000829
453.949311	1.000731
454.323001	1.000741
454.696632	1.001022
455.070202	1.001224
455.443713	1.001328
455.817164	1.000808
456.190556	1.000603
456.563888	1.002261
456.937160	1.001699
457.310373	1.000654
457.683526	1.001381
458.056619	1.001117
458.429653	1.001077
458.802628	1.001468
459.175542	1.000864
459.548398	1.001120
459.921194	1.000959
460.293930	1.001938
460.666607	1.001964
461.039224	1.001221
461.411782	1.001156
461.784280	1.001003
462.156719	1.001929
462.529099	1.001376
462.901419	1.001432
463.273680	1.001075
463.645882	1.001078
464.018024	1.002457
464.390106	1.001643
464.762130	1.001961
465.134094	1.001231
465.505999	1.001218
465.877845	1.001330
466.249631	1.001517
466.621358	1.000694
466.993026	1.001391
467.364634	1.001840
467.736184	1.001326
468.107674	1.000671
468.479105	1.001189
468.850477	1.001986
469.221790	1.001610
469.593043	1.001238
469.964238	1.001117
470.335373	1.001208
470.706449	1.001333
471.077467	1.001569
471.448425	1.001766
471.819324	1.000919
472.190164	1.001596
472.560945	1.001319
472.931667	1.001634
473.302330	1.001221
473.672934	1.002001
474.043479	1.001493
474.413965	1.001883
474.784393	1.001705
475.154761	1.000829
475.525070	1.001212
475.895321	1.002169
476.265513	1.001570
476.635645	1.002151
477.005719	1.002493
477.375734	1.001167
477.745691	1.001363
478.115588	1.000594
478.485427	1.001654
478.855207	1.001431
479.224928	1.001592
479.594591	1.001292
479.964194	1.001042
480.333739	1.001566
480.703226	1.001436
481.072653	1.001102
481.442022	1.001516
481.811333	1.001224
482.180584	1.001435
482.549777	1.001492
482.918912	1.001354
483.287988	1.001075
483.657005	1.000855
484.025964	1.001871
484.394864	1.000565
484.763706	1.000943
485.132489	1.002123
485.501213	1.001338
485.869879	1.001073
486.238487	1.000553
486.607036	1.001938
486.975527	1.001059
487.343959	1.000534
487.712333	1.001122
488.080648	1.000795
488.448905	1.001993
488.817104	1.001158
489.185244	1.001969
489.553326	1.001762
489.921350	1.001520
490.289315	1.000899
490.657222	1.000918
491.025070	1.001691
491.392861	1.001406
491.760593	1.001647
492.128267	1.001158
492.495883	1.000682
492.863440	1.001343
493.230939	1.000886
493.598380	1.001705
493.965763	1.001259
494.333088	1.000925
494.700354	1.000938
495.067563	1.001045
495.434713	1.001428
495.801805	1.001078
496.168839	1.001295
496.535815	1.001726
496.902733	1.001009
497.269593	1.001247
497.636395	1.000490
498.003139	1.000938
498.369825	1.001717
498.736453	1.001449
499.103023	1.001686
499.469535	1.001254
499.835989	1.002268
500.202385	1.001299
500.568723	1.000857
500.935003	1.001771
501.301226	1.001433
501.667390	1.000748
502.033497	1.001252
502.399546	1.001173
502.765537	1.001405
503.131470	1.001138
503.497345	1.002141
503.863163	1.001410
504.228923	1.001472
504.594625	1.001090
504.960269	1.000986
505.325856	1.002060
505.691385	1.001603
506.056856	1.001822
506.422270	1.001815
506.787625	1.001167
507.152924	1.001847
507.518164	1.000960
507.883347	1.001046
508.248472	1.001626
508.613540	1.001397
508.978550	1.000949
509.343503	1.001389
509.708398	1.001891
510.073236	1.001751
510.438016	1.001034
510.802738	1.000616
511.167403	1.001465
511.532010	1.001571
511.896561	1.001197
512.261053	1.001192
512.625488	1.001252
512.989866	1.000895
513.354186	1.001021
513.718449	1.001410
514.082655	1.001343
514.446803	1.001146
514.810894	1.001514
515.174927	1.000951
515.538904	1.001801
515.902822	1.001272
516.266684	1.001095
516.630488	1.001186
516.994235	1.001536
517.357925	1.002096
517.721558	1.001094
518.085133	1.001566
518.448651	1.001362
518.812112	1.001775
519.175516	1.000659
519.538863	1.001336
519.902152	1.002098
520.265385	1.002038
520.628560	1.000212
520.991678	1.001830
521.354739	1.001583
521.717743	1.001252
522.080690	1.000907
522.443580	1.001262
522.806413	1.001071
523.169189	1.002088
523.531908	1.000866
523.894569	1.001582
524.257174	1.000963
524.619722	1.001417
524.982213	1.001231
525.344647	1.000919
525.707025	1.000349
526.069345	1.001093
526.431608	1.001064
526.793815	1.001619
527.155964	1.001103
527.518057	1.001713
527.880093	1.001688
528.242072	1.001037
528.603995	1.001171
528.965860	1.001329
529.327669	1.001746
529.689421	1.001336
530.051117	1.001243
530.412755	1.001067
530.774337	1.000751
531.135862	1.001864
531.497331	1.001082
531.858743	1.001636
532.220098	1.000875
532.581396	1.001451
532.942638	1.000885
533.303824	1.002723
533.664953	1.001137
534.026025	1.002760
534.387040	1.001466
534.747999	1.000829
535.108902	1.001652
535.469748	1.001597
535.830537	1.002272
536.191270	1.001145
536.551947	1.001237
536.912567	1.001579
537.273131	1.002338
537.633638	1.001667
537.994089	1.001051
538.354483	1.001672
538.714821	1.001346
539.075103	1.001610
539.435328	1.001659
539.795497	1.001673
540.155609	1.001780
540.515665	1.001347
540.875665	1.001312
541.235609	1.001162
541.595496	1.000629
541.955328	1.001279
542.315102	1.001792
542.674821	1.001653
543.034483	1.002143
543.394090	1.000740
543.753640	1.001763
544.113134	1.001284
544.472571	1.001759
544.831953	1.001898
545.191278	1.002036
545.550548	1.000624
545.909761	1.001286
546.268918	1.002665
546.628019	1.001513
546.987064	1.001298
547.346053	1.001277
547.704986	1.001470
548.063863	1.000941
548.422684	1.001906
548.781449	1.001514
549.140158	1.001762
549.498811	1.001191
549.857408	1.000629
550.215949	1.001609
550.574434	1.001339
550.932864	1.001437
551.291237	1.001480
551.649555	1.001307
552.007817	1.001244
552.366022	1.001601
552.724173	1.001814
553.082267	1.001043
553.440305	1.000706
553.798288	1.000647
554.156215	1.001494
554.514086	1.001448
554.871902	1.001126
555.229661	1.000729
555.587365	1.001029
555.945014	1.002099
556.302606	1.000451
556.660143	1.001725
557.017625	1.001377
557.375050	1.000931
557.732421	1.001545
558.089735	1.001144
558.446994	1.001228
558.804197	1.001701
559.161345	1.001224
559.518437	1.000891
559.875474	1.001608
560.232455	1.001805
560.589381	1.001933
560.946251	1.001066
561.303065	1.001806
561.659825	1.000909
562.016528	1.002005
562.373177	1.001559
562.729770	1.001343
563.086307	1.000211
563.442789	1.001268
563.799216	1.000592
564.155587	1.001362
564.511904	1.001730
564.868164	1.000067
565.224370	1.001690
565.580520	1.001122
565.936615	1.001698
566.292654	1.001318
566.648638	1.002279
567.004567	1.001003
567.360441	1.001491
567.716260	1.001534
568.072023	1.000740
568.427732	1.001558
568.783385	1.001144
569.138982	1.001227
569.494525	1.001145
569.850013	1.001631
570.205445	1.001687
570.560823	1.001498
570.916145	1.000955
571.271412	1.000883
571.626625	1.001323
571.981782	1.001083
572.336884	1.001102
572.691931	1.001127
573.046923	1.001086
573.401860	1.001490
573.756743	1.001628
574.111570	1.001010
574.466342	1.001991
574.821059	1.001647
575.175722	1.001814
575.530330	1.001288
575.884882	1.001525
576.239380	1.001244
576.593823	1.001229
576.948211	1.001363
577.302544	1.001701
577.656823	1.001048
578.011047	1.000771
578.365216	1.002577
578.719330	1.001198
579.073389	1.001578
579.427394	1.001176
579.781344	1.001803
580.135239	1.000715
580.489080	1.001143
580.842866	1.001695
581.196597	1.000100
581.550273	1.000847
581.903895	1.001765
582.257463	1.001519
582.610975	1.001308
582.964434	1.001424
583.317837	1.001550
583.671186	1.001619
584.024481	1.001118
584.377721	1.001357
584.730906	1.001787
585.084037	1.001922
585.437113	1.002059
585.790135	1.001313
586.143103	1.001182
586.496016	1.001007
586.848874	1.001203
587.201679	1.001055
587.554428	1.001489
587.907124	1.001528
588.259765	1.001817
588.612352	1.001833
588.964884	1.001456
589.317362	1.001633
589.669786	1.001270
590.022155	1.000621
590.374470	1.000817
590.726731	1.000487
591.078937	1.001766
591.431090	1.001644
591.783188	1.000422
592.135232	1.001150
592.487222	1.000944
592.839157	1.001293
593.191038	1.001245
593.542866	1.001467
593.894639	1.000382
594.246358	1.001660
594.598022	1.001246
594.949633	1.001662
595.301190	1.001152
595.652692	1.000707
596.004141	1.000868
596.355535	1.000568
596.706876	1.001469
597.058162	1.001330
597.409395	1.001693
597.760573	1.001002
598.111698	1.001312
598.462768	1.000937
598.813785	1.000641
599.164748	1.000910
599.515657	1.000648
599.866511	1.002046
600.217312	1.001596
600.568060	1.001130
600.918753	1.001603
601.269392	1.001677
601.619978	1.001753
601.970510	1.001377
602.320988	1.000735
602.671412	1.000808
603.021783	1.002126
603.372100	1.001221
603.722363	1.000999
604.072572	1.001148
604.422728	1.001233
604.772830	1.000654
605.122878	1.001328
605.472872	1.001434
605.822813	1.000721
606.172701	1.001047
606.522534	1.001045
606.872314	1.001991
607.222041	1.001402
607.571714	1.001272
607.921333	1.000844
608.270899	1.000683
608.620411	1.000705
608.969870	1.002287
609.319276	1.001905
609.668627	1.001648
610.017926	1.001257
610.367171	1.001682
610.716362	1.001746
611.065500	1.000512
611.414585	1.001152
611.763616	1.000574
612.112594	1.000750
612.461518	1.000779
612.810389	1.001245
613.159207	1.001332
613.507971	1.000608
613.856682	1.002088
614.205340	0.999935
614.553945	1.001611
614.902496	1.001726
615.250994	1.001584
615.599439	1.001489
615.947830	1.000449
616.296169	1.000970
616.644454	1.001683
616.992686	1.000630
617.340864	1.001638
617.688990	1.001073
618.037063	1.001357
618.385082	1.000422
618.733048	1.001048
619.080961	1.000990
619.428821	1.001571
619.776628	1.000958
620.124382	1.001621
620.472083	1.001583
620.819731	1.001958
621.167326	1.001243
621.514868	1.001547
621.862357	1.000914
622.209793	1.000830
622.557176	1.000667
622.904506	0.999944
623.251783	1.001224
623.599007	1.000933
623.946179	1.000667
624.293297	1.001644
624.640363	1.001038
624.987376	1.000684
625.334336	1.000544
625.681243	1.000539
626.028097	1.001237
626.374899	1.000296
626.721647	1.001609
627.068343	0.999861
627.414987	1.000873
627.761577	1.000043
628.108115	1.000644
628.454600	1.001348
628.801032	1.001149
629.147412	1.001179
629.493739	1.001258
629.840014	1.000621
630.186236	0.999731
630.532405	1.000637
630.878521	1.000514
631.224585	1.000884
631.570597	0.999855
631.916556	1.000885
632.262462	0.999673
632.608316	1.001090
632.954117	1.000106
633.299866	1.000949
633.645562	1.000632
633.991206	1.001545
634.336797	1.001100
634.682336	1.001165
635.027823	1.000381
635.373257	1.000706
635.718639	1.000884
636.063968	1.000271
636.409245	1.000705
636.754470	1.001509
637.099642	1.000658
637.444762	1.000832
637.789829	1.000590
638.134845	1.000207
638.479808	1.000164
638.824719	1.000652
639.169577	1.000800
639.514383	1.001141
639.859137	1.000944
640.203839	1.000229
640.548489	1.000742
640.893086	1.000463
641.237632	1.000962
641.582125	1.000497
641.926566	1.001106
642.270955	1.000398
642.615292	1.000829
642.959576	1.000475
643.303809	1.000776
643.647990	1.000297
643.992118	1.001270
644.336195	1.000450
644.680219	1.000714
645.024192	1.000435
645.368112	0.999584
645.711981	1.000497
646.055797	1.000643
646.399562	0.999838
646.743274	1.000812
647.086935	1.000007
647.430544	1.000366
647.774101	0.999882
648.117606	1.000794
648.461059	1.001272
648.804460	1.000755
649.147810	1.000165
649.491108	1.000562
649.834354	1.000389
650.177548	1.000257
650.520690	1.000300
650.863781	1.000002
651.206820	1.000987
651.549807	1.000341
651.892742	1.000881
652.235626	1.000448
652.578458	0.999766
652.921238	1.000752
653.263967	1.000354
653.606644	0.999782
653.949269	1.000652
654.291843	0.999671
654.634365	1.000609
654.976836	0.999368
655.319255	1.000836
655.661622	1.000357
656.003938	1.000429
656.346203	0.999602
656.688416	1.000540
657.030577	1.000674
657.372687	1.000280
657.714746	0.999170
658.056753	1.000122
658.398708	0.999798
658.740612	1.000466
659.082465	1.000595
659.424266	1.000160
659.766016	1.000067
660.107715	1.000443
660.449362	0.999625
660.790958	0.999084
661.132503	0.999912
661.473996	0.999675
661.815438	1.000192
662.156829	1.000678
662.498168	1.000305
662.839456	0.999669
663.180693	0.999877
663.521879	1.000118
663.863013	0.999727
664.204097	0.999808
664.545129	0.999850
664.886110	1.000177
665.227040	1.000252
665.567918	1.000107
665.908746	0.999421
666.249522	0.999870
666.590248	0.998956
666.930922	0.999755
667.271545	0.999943
667.612118	0.999877
667.952639	1.000075
668.293109	1.000629
668.633528	1.000193
668.973896	0.999552
669.314213	0.999179
669.654480	0.999717
669.994695	0.999543
670.334859	1.000207
670.674973	0.999508
671.015035	0.999739
671.355047	0.999699
671.695008	0.999852
672.034918	1.000047
672.374777	1.000031
672.714585	0.999689
673.054342	1.000245
673.394049	0.999347
673.733705	0.999123
674.073310	1.000049
674.412864	0.999728
674.752368	0.999578
675.091820	1.000777
675.431223	0.999798
675.770574	0.999202
676.109875	0.999335
676.449125	0.999556
676.788324	0.999234
677.127473	1.000195
677.466571	1.000172
677.805619	1.000157
678.144616	1.000662
678.483562	1.000393
678.822458	1.000331
679.161303	1.000125
679.500098	1.000183
679.838842	1.000008
680.177535	0.999434
680.516179	0.998947
680.854771	0.998998
681.193314	0.999716
681.531805	0.999612
681.870247	0.999594
682.208638	0.999685
682.546978	0.999754
682.885268	0.999069
683.223508	0.998774
683.561697	0.998530
683.899836	1.000701
684.237925	0.999453
684.575963	0.999657
684.913951	0.999566
685.251889	0.999292
685.589776	0.999389
685.927614	0.998910
686.265401	0.999129
686.603137	0.998297
686.940824	0.999245
687.278460	1.000062
687.616046	0.999272
687.953582	0.999428
688.291068	0.999321
688.628504	0.999416
