Dividing Wavelength (nm)	Counts (n)	Blue Motor Position (mm): 46.800000	Red Motor Position (mm): 0.000000	
326.493990	0.999897
326.888308	0.999897
327.282561	0.999897
327.676750	1.000595
328.070874	1.000678
328.464933	1.000980
328.858929	1.001118
329.252859	1.000157
329.646726	1.000213
330.040528	1.001576
330.434265	1.000830
330.827938	0.999086
331.221547	1.000550
331.615091	1.001635
332.008571	0.999988
332.401986	0.999299
332.795338	1.000582
333.188625	1.000406
333.581847	1.000259
333.975006	0.999552
334.368100	1.000575
334.761129	0.999539
335.154095	0.999449
335.546996	0.999968
335.939833	0.999544
336.332606	0.999818
336.725315	0.998475
337.117960	1.001068
337.510540	0.999525
337.903056	0.999808
338.295508	1.001289
338.687896	0.999940
339.080220	0.999431
339.472480	0.998978
339.864676	1.001086
340.256807	0.998816
340.648875	1.000759
341.040879	1.000116
341.432818	1.001178
341.824694	0.999284
342.216506	1.001154
342.608253	0.999178
342.999937	0.999612
343.391557	0.999967
343.783113	1.000396
344.174605	1.000114
344.566033	0.999028
344.957397	1.001105
345.348697	1.000761
345.739934	1.000873
346.131106	0.999600
346.522215	1.000460
346.913260	0.998769
347.304241	0.999622
347.695159	1.000430
348.086012	0.999426
348.476802	0.999895
348.867528	1.000190
349.258191	1.000621
349.648789	1.001151
350.039324	0.999627
350.429796	0.999427
350.820203	0.999578
351.210548	1.000282
351.600828	1.001223
351.991045	0.999819
352.381198	1.000279
352.771288	1.001273
353.161314	1.000131
353.551276	0.999578
353.941175	0.998260
354.331010	1.001496
354.720782	1.000862
355.110490	1.001153
355.500135	0.999590
355.889717	0.998650
356.279235	0.999158
356.668689	1.000560
357.058080	0.999861
357.447408	0.998685
357.836672	0.999755
358.225873	1.000209
358.615010	0.999295
359.004084	0.999406
359.393095	1.000583
359.782043	0.999285
360.170927	1.000522
360.559748	0.998997
360.948505	0.999423
361.337199	1.000648
361.725830	1.001290
362.114398	1.000290
362.502903	0.998378
362.891344	0.998938
363.279722	0.998366
363.668037	0.999417
364.056289	0.999452
364.444478	1.000740
364.832603	0.999862
365.220665	1.000037
365.608665	0.998884
365.996601	0.998190
366.384474	1.000016
366.772284	0.999233
367.160031	0.997955
367.547715	0.998472
367.935336	0.998240
368.322893	0.996270
368.710388	0.995678
369.097820	0.994876
369.485189	0.992591
369.872495	0.991074
370.259738	0.989161
370.646918	0.986157
371.034035	0.983914
371.421090	0.981312
371.808081	0.977565
372.195010	0.976731
372.581875	0.972000
372.968678	0.969752
373.355418	0.968317
373.742096	0.963776
374.128710	0.960723
374.515262	0.959055
374.901751	0.957053
375.288177	0.955858
375.674540	0.952687
376.060841	0.950772
376.447079	0.948806
376.833254	0.946770
377.219367	0.946981
377.605417	0.942158
377.991404	0.943592
378.377329	0.943809
378.763191	0.942451
379.148991	0.941528
379.534727	0.941514
379.920402	0.939685
380.306013	0.942093
380.691563	0.940967
381.077049	0.941157
381.462474	0.944193
381.847835	0.942932
382.233134	0.945972
382.618371	0.949517
383.003545	0.948194
383.388657	0.951051
383.773706	0.952479
384.158693	0.955434
384.543618	0.958597
384.928480	0.959220
385.313280	0.961128
385.698017	0.963667
386.082692	0.965897
386.467305	0.967914
386.851856	0.971070
387.236344	0.973090
387.620770	0.975288
388.005133	0.978749
388.389435	0.979579
388.773674	0.981282
389.157851	0.983664
389.541965	0.986214
389.926018	0.987745
390.310008	0.988539
390.693936	0.990844
391.077802	0.991868
391.461606	0.991762
391.845348	0.994189
392.229027	0.993995
392.612645	0.995875
392.996200	0.995835
393.379694	0.994750
393.763125	0.997184
394.146494	0.997143
394.529801	0.997631
394.913047	0.996695
395.296230	0.999174
395.679351	0.998462
396.062410	0.999489
396.445408	0.999060
396.828343	1.000345
397.211217	1.000414
397.594028	0.999605
397.976778	1.000065
398.359466	1.000248
398.742092	1.000601
399.124656	0.999071
399.507158	0.998868
399.889598	1.000497
400.271977	1.000233
400.654294	0.999975
401.036549	1.000125
401.418742	0.999549
401.800874	1.000311
402.182944	0.999857
402.564952	1.000100
402.946898	1.000542
403.328783	1.001025
403.710606	0.999671
404.092367	1.000514
404.474067	1.001111
404.855705	1.000977
405.237282	0.999991
405.618797	1.000061
406.000250	1.000605
406.381642	0.999330
406.762972	1.001636
407.144240	1.001092
407.525447	0.999118
407.906593	0.999350
408.287677	0.998826
408.668700	1.000710
409.049661	1.000973
409.430560	0.999919
409.811399	1.000173
410.192176	0.999190
410.572891	1.001181
410.953545	1.000059
411.334138	1.000068
411.714669	1.000059
412.095139	1.000087
412.475547	0.999948
412.855894	1.000089
413.236180	0.999581
413.616405	1.000503
413.996568	1.000345
414.376670	1.000000
414.756711	1.000136
415.136691	0.999657
415.516609	1.000698
415.896466	1.001524
416.276262	0.999388
416.655997	1.001166
417.035670	1.000698
417.415283	1.001152
417.794834	1.001480
418.174324	1.000559
418.553753	1.000183
418.933121	1.000143
419.312428	1.001261
419.691674	1.000456
420.070859	1.000909
420.449983	1.000637
420.829045	0.999790
421.208047	1.000518
421.586988	1.000121
421.965867	1.000053
422.344686	1.000112
422.723444	1.000816
423.102141	1.000786
423.480777	1.000009
423.859352	1.000490
424.237866	1.000395
424.616319	1.001241
424.994712	1.000244
425.373044	1.000800
425.751314	1.001073
426.129524	1.001166
426.507673	1.000207
426.885762	1.000354
427.263789	1.000881
427.641756	1.000567
428.019662	1.000227
428.397508	1.000165
428.775292	1.000608
429.153016	1.000226
429.530679	1.000089
429.908282	1.001720
430.285824	1.000576
430.663305	1.000735
431.040726	0.999948
431.418086	1.002112
431.795385	1.001697
432.172624	1.001617
432.549802	1.000338
432.926920	1.000831
433.303977	1.001665
433.680974	1.001511
434.057910	1.000561
434.434786	0.999957
434.811601	1.001093
435.188355	1.001048
435.565050	1.000621
435.941683	1.000706
436.318257	0.999859
436.694770	1.001226
437.071222	1.001809
437.447614	1.000502
437.823946	1.000791
438.200218	1.000423
438.576429	0.999736
438.952580	1.001019
439.328670	0.999809
439.704700	1.000466
440.080670	1.000768
440.456580	1.000962
440.832429	1.001275
441.208218	1.001197
441.583947	1.000433
441.959616	1.000442
442.335224	1.001348
442.710773	1.000757
443.086261	1.001121
443.461689	0.999482
443.837057	1.000494
444.212365	1.000508
444.587612	1.001652
444.962800	1.000300
445.337927	1.001804
445.712995	1.000290
446.088002	1.000664
446.462949	1.000174
446.837837	1.001591
447.212664	1.000908
447.587431	1.001136
447.962139	1.000065
448.336786	1.000059
448.711374	1.000597
449.085901	1.001263
449.460369	1.001554
449.834776	1.000400
450.209124	1.000468
450.583412	1.000545
450.957640	1.001114
451.331808	1.002529
451.705917	1.000537
452.079965	1.000887
452.453954	1.001217
452.827883	1.001207
453.201752	1.001017
453.575562	1.000326
453.949311	1.000988
454.323001	1.000595
454.696632	1.001264
455.070202	1.000499
455.443713	1.000944
455.817164	1.000879
456.190556	1.001250
456.563888	1.001126
456.937160	1.000653
457.310373	1.000712
457.683526	1.001068
458.056619	1.001286
458.429653	1.001067
458.802628	1.000941
459.175542	1.000690
459.548398	1.000820
459.921194	1.001150
460.293930	1.001246
460.666607	1.002130
461.039224	1.001327
461.411782	1.000966
461.784280	1.000272
462.156719	1.001976
462.529099	1.001584
462.901419	1.001357
463.273680	1.000616
463.645882	1.001029
464.018024	1.001331
464.390106	1.000851
464.762130	1.001016
465.134094	1.000614
465.505999	1.000905
465.877845	1.000814
466.249631	1.001146
466.621358	1.000522
466.993026	1.000933
467.364634	1.001449
467.736184	1.001620
468.107674	1.001130
468.479105	1.001483
468.850477	1.001438
469.221790	1.000947
469.593043	1.001215
469.964238	1.001020
470.335373	1.001069
470.706449	1.000780
471.077467	1.001437
471.448425	1.000900
471.819324	1.000673
472.190164	1.001112
472.560945	1.001186
472.931667	1.001195
473.302330	1.001361
473.672934	1.002251
474.043479	1.001208
474.413965	1.000957
474.784393	1.000885
475.154761	1.000802
475.525070	1.001141
475.895321	1.002167
476.265513	1.001655
476.635645	1.001630
477.005719	1.001608
477.375734	1.001352
477.745691	1.001408
478.115588	1.001053
478.485427	1.000857
478.855207	1.001245
479.224928	1.001394
479.594591	1.001947
479.964194	1.001232
480.333739	1.001448
480.703226	1.001017
481.072653	1.000783
481.442022	1.001284
481.811333	1.000686
482.180584	1.001391
482.549777	1.001441
482.918912	1.001463
483.287988	1.001345
483.657005	1.000519
484.025964	1.001147
484.394864	1.000627
484.763706	1.001025
485.132489	1.001470
485.501213	1.001233
485.869879	1.000465
486.238487	1.000548
486.607036	1.001737
486.975527	1.000977
487.343959	1.000939
487.712333	1.001189
488.080648	1.000449
488.448905	1.001820
488.817104	1.000918
489.185244	1.001457
489.553326	1.001225
489.921350	1.001247
490.289315	1.001064
490.657222	1.000368
491.025070	1.001560
491.392861	1.001030
491.760593	1.000755
492.128267	1.000692
492.495883	1.000386
492.863440	1.001439
493.230939	1.001430
493.598380	1.001148
493.965763	1.001112
494.333088	1.000309
494.700354	1.000434
495.067563	1.000668
495.434713	1.000940
495.801805	1.000591
496.168839	1.001103
496.535815	1.000735
496.902733	1.000707
497.269593	1.000819
497.636395	1.000495
498.003139	1.000460
498.369825	1.001173
498.736453	1.000900
499.103023	1.001313
499.469535	1.001309
499.835989	1.001011
500.202385	1.000606
500.568723	1.000493
500.935003	1.001138
501.301226	1.001293
501.667390	1.001122
502.033497	1.001019
502.399546	1.000295
502.765537	1.001064
503.131470	1.000755
503.497345	1.001077
503.863163	1.001186
504.228923	1.000894
504.594625	1.000936
504.960269	1.001262
505.325856	1.001678
505.691385	1.000716
506.056856	1.001027
506.422270	1.000347
506.787625	1.001652
507.152924	1.001356
507.518164	1.000644
507.883347	1.000262
508.248472	1.000641
508.613540	1.000108
508.978550	1.001327
509.343503	1.001211
509.708398	1.000652
510.073236	1.000776
510.438016	1.000328
510.802738	1.000586
511.167403	1.000372
511.532010	1.001482
511.896561	1.001149
512.261053	1.000593
512.625488	1.001029
512.989866	1.001033
513.354186	1.000335
513.718449	1.001297
514.082655	1.000568
514.446803	1.001363
514.810894	1.001111
515.174927	1.000635
515.538904	1.001568
515.902822	1.000546
516.266684	1.001682
516.630488	1.001133
516.994235	1.001431
517.357925	1.001568
517.721558	1.000832
518.085133	1.000540
518.448651	1.001142
518.812112	1.001207
519.175516	1.000667
519.538863	1.000664
519.902152	1.001278
520.265385	1.000953
520.628560	1.000352
520.991678	1.000564
521.354739	1.002013
521.717743	1.001370
522.080690	1.000796
522.443580	1.000950
522.806413	1.001080
523.169189	1.001402
523.531908	1.000724
523.894569	1.001009
524.257174	1.000958
524.619722	1.001052
524.982213	1.000734
525.344647	1.001384
525.707025	1.000099
526.069345	1.000726
526.431608	1.001236
526.793815	1.001578
527.155964	1.001644
527.518057	1.000669
527.880093	1.000761
528.242072	1.000678
528.603995	1.000839
528.965860	1.001336
529.327669	1.001152
529.689421	1.000533
530.051117	1.001188
530.412755	1.001185
530.774337	1.000852
531.135862	1.001443
531.497331	1.001415
531.858743	1.001125
532.220098	1.000635
532.581396	1.001225
532.942638	1.001085
533.303824	1.001938
533.664953	1.000457
534.026025	1.002041
534.387040	1.001176
534.747999	1.000554
535.108902	1.001055
535.469748	1.001803
535.830537	1.001123
536.191270	1.001772
536.551947	1.001114
536.912567	1.001420
537.273131	1.001402
537.633638	1.001285
537.994089	1.001633
538.354483	1.000860
538.714821	1.001043
539.075103	1.001045
539.435328	1.001437
539.795497	1.001453
540.155609	1.001621
540.515665	1.001323
540.875665	1.000775
541.235609	1.000859
541.595496	1.000612
541.955328	1.001380
542.315102	1.001446
542.674821	1.001449
543.034483	1.000501
543.394090	1.000890
543.753640	1.001335
544.113134	1.000769
544.472571	1.001543
544.831953	1.001436
545.191278	1.001499
545.550548	1.001105
545.909761	1.000803
546.268918	1.001612
546.628019	1.001434
546.987064	1.000788
547.346053	1.000786
547.704986	1.001467
548.063863	1.000606
548.422684	1.001564
548.781449	1.000581
549.140158	1.001093
549.498811	1.001312
549.857408	1.000491
550.215949	1.000685
550.574434	1.001132
550.932864	1.001304
551.291237	1.001199
551.649555	1.001802
552.007817	1.001019
552.366022	1.001122
552.724173	1.002287
553.082267	1.001147
553.440305	1.001199
553.798288	1.000682
554.156215	1.000952
554.514086	1.001408
554.871902	1.001245
555.229661	1.000434
555.587365	1.001440
555.945014	1.001733
556.302606	1.000518
556.660143	1.001746
557.017625	1.001554
557.375050	1.000563
557.732421	1.001187
558.089735	1.000577
558.446994	1.001112
558.804197	1.001083
559.161345	1.000822
559.518437	1.000940
559.875474	1.001590
560.232455	1.001455
560.589381	1.001044
560.946251	1.001255
561.303065	1.001388
561.659825	1.000766
562.016528	1.001464
562.373177	1.001503
562.729770	1.000825
563.086307	1.000927
563.442789	1.000894
563.799216	1.000748
564.155587	1.001429
564.511904	1.002051
564.868164	1.000673
565.224370	1.000874
565.580520	1.000906
565.936615	1.001075
566.292654	1.001070
566.648638	1.001854
567.004567	1.000937
567.360441	1.001784
567.716260	1.001134
568.072023	1.000707
568.427732	1.001526
568.783385	1.000993
569.138982	1.001175
569.494525	1.001084
569.850013	1.002278
570.205445	1.001553
570.560823	1.001183
570.916145	1.001366
571.271412	1.000658
571.626625	1.001162
571.981782	1.001412
572.336884	1.001574
572.691931	1.001055
573.046923	1.001556
573.401860	1.000688
573.756743	1.000680
574.111570	1.001229
574.466342	1.001973
574.821059	1.001304
575.175722	1.001275
575.530330	1.001501
575.884882	1.001697
576.239380	1.001729
576.593823	1.000929
576.948211	1.001296
577.302544	1.001074
577.656823	1.001417
578.011047	1.000856
578.365216	1.001948
578.719330	1.001163
579.073389	1.000641
579.427394	1.001249
579.781344	1.001225
580.135239	1.000853
580.489080	1.001635
580.842866	1.001472
581.196597	1.001762
581.550273	1.001275
581.903895	1.001213
582.257463	1.001356
582.610975	1.001492
582.964434	1.001302
583.317837	1.002124
583.671186	1.001266
584.024481	1.001060
584.377721	1.000519
584.730906	1.000661
585.084037	1.001807
585.437113	1.001951
585.790135	1.001139
586.143103	1.001690
586.496016	1.000833
586.848874	1.001379
587.201679	1.001669
587.554428	1.000860
587.907124	1.002184
588.259765	1.001273
588.612352	1.002168
588.964884	1.001295
589.317362	1.001098
589.669786	1.000407
590.022155	1.001149
590.374470	1.001322
590.726731	1.001419
591.078937	1.001235
591.431090	1.001723
591.783188	1.000818
592.135232	1.002026
592.487222	1.002309
592.839157	1.000997
593.191038	1.001634
593.542866	1.001410
593.894639	1.000307
594.246358	1.001481
594.598022	1.001890
594.949633	1.001144
595.301190	1.001145
595.652692	1.001020
596.004141	1.001427
596.355535	1.000937
596.706876	1.001572
597.058162	1.001675
597.409395	1.001804
597.760573	1.001289
598.111698	1.002043
598.462768	1.001295
598.813785	1.000387
599.164748	1.001163
599.515657	0.999973
599.866511	1.001737
600.217312	1.002124
600.568060	1.000692
600.918753	1.001611
601.269392	1.001651
601.619978	1.001716
601.970510	1.001333
602.320988	1.001704
602.671412	1.001242
603.021783	1.002051
603.372100	1.002285
603.722363	1.001798
604.072572	1.001031
604.422728	1.000872
604.772830	1.001185
605.122878	1.001403
605.472872	1.001914
605.822813	1.000679
606.172701	1.001616
606.522534	1.001513
606.872314	1.002332
607.222041	1.000972
607.571714	1.001927
607.921333	1.001401
608.270899	1.000592
608.620411	1.001640
608.969870	1.001927
609.319276	1.001583
609.668627	1.001884
610.017926	1.001374
610.367171	1.001579
610.716362	1.001678
611.065500	1.001551
611.414585	1.001541
611.763616	1.001416
612.112594	1.001298
612.461518	1.000310
612.810389	1.001780
613.159207	1.001042
613.507971	1.001157
613.856682	1.002069
614.205340	1.000913
614.553945	1.002202
614.902496	1.001167
615.250994	1.001884
615.599439	1.001567
615.947830	1.000893
616.296169	1.002127
616.644454	1.002029
616.992686	1.001862
617.340864	1.001472
617.688990	1.001005
618.037063	1.001926
618.385082	1.000867
618.733048	1.001104
619.080961	1.001803
619.428821	1.001903
619.776628	1.001411
620.124382	1.001893
620.472083	1.001594
620.819731	1.002153
621.167326	1.002038
621.514868	1.002056
621.862357	1.001705
622.209793	1.002095
622.557176	1.001599
622.904506	1.001318
623.251783	1.001280
623.599007	1.002136
623.946179	1.001389
624.293297	1.001710
624.640363	1.001851
624.987376	1.000826
625.334336	1.001293
625.681243	1.001793
626.028097	1.002165
626.374899	1.001209
626.721647	1.002636
627.068343	1.001171
627.414987	1.001673
627.761577	1.001080
628.108115	1.000946
628.454600	1.002043
628.801032	1.001852
629.147412	1.001787
629.493739	1.002745
629.840014	1.001241
630.186236	1.001779
630.532405	1.001206
630.878521	1.000829
631.224585	1.001334
631.570597	1.001241
631.916556	1.001578
632.262462	1.001009
632.608316	1.001508
632.954117	1.001241
633.299866	1.001061
633.645562	1.001400
633.991206	1.002099
634.336797	1.001605
634.682336	1.002470
635.027823	1.001452
635.373257	1.001579
635.718639	1.002299
636.063968	1.001507
636.409245	1.001304
636.754470	1.001903
637.099642	1.002192
637.444762	1.002193
637.789829	1.001934
638.134845	1.000709
638.479808	1.001946
638.824719	1.001908
639.169577	1.001820
639.514383	1.002124
639.859137	1.001596
640.203839	1.000887
640.548489	1.000985
640.893086	1.001097
641.237632	1.001847
641.582125	1.000757
641.926566	1.001519
642.270955	1.001360
642.615292	1.001163
642.959576	1.001917
643.303809	1.001551
643.647990	1.001476
643.992118	1.001991
644.336195	1.000965
644.680219	1.001273
645.024192	1.001160
645.368112	1.000682
645.711981	1.001599
646.055797	1.001300
646.399562	1.000840
646.743274	1.001921
647.086935	1.001560
647.430544	1.000931
647.774101	1.000799
648.117606	1.001540
648.461059	1.001841
648.804460	1.001083
649.147810	1.001471
649.491108	1.001013
649.834354	1.001731
650.177548	1.001091
650.520690	1.001386
650.863781	1.000754
651.206820	1.001026
651.549807	1.001486
651.892742	1.001954
652.235626	1.002431
652.578458	1.002035
652.921238	1.002541
653.263967	1.001462
653.606644	1.001813
653.949269	1.002170
654.291843	1.000377
654.634365	1.002066
654.976836	1.000958
655.319255	1.002920
655.661622	1.001284
656.003938	1.001724
656.346203	1.001163
656.688416	1.001735
657.030577	1.000983
657.372687	1.001284
657.714746	1.000862
658.056753	1.002119
658.398708	1.000266
658.740612	1.002337
659.082465	1.000710
659.424266	1.001355
659.766016	1.000857
660.107715	1.001927
660.449362	1.001682
660.790958	1.000311
661.132503	1.001432
661.473996	1.001125
661.815438	1.002387
662.156829	1.001617
662.498168	1.001353
662.839456	1.001639
663.180693	1.001103
663.521879	1.001650
663.863013	1.001954
664.204097	1.000653
664.545129	1.001111
664.886110	1.001229
665.227040	1.001629
665.567918	1.000914
665.908746	1.000862
666.249522	1.000661
666.590248	1.000362
666.930922	1.000317
667.271545	1.000932
667.612118	1.001474
667.952639	1.000827
668.293109	1.000995
668.633528	1.001680
668.973896	1.001448
669.314213	1.000866
669.654480	1.000784
669.994695	1.001354
670.334859	1.001342
670.674973	1.000762
671.015035	1.001336
671.355047	1.001286
671.695008	1.000798
672.034918	1.000419
672.374777	1.001424
672.714585	1.001159
673.054342	1.000623
673.394049	1.000366
673.733705	1.000594
674.073310	1.001231
674.412864	1.000845
674.752368	0.999855
675.091820	1.002004
675.431223	1.001992
675.770574	0.999918
676.109875	1.000607
676.449125	1.000386
676.788324	1.000086
677.127473	1.001674
677.466571	1.000970
677.805619	1.000925
678.144616	1.001576
678.483562	1.000919
678.822458	1.000818
679.161303	1.000613
679.500098	1.001171
679.838842	1.001591
680.177535	1.000956
680.516179	1.000238
680.854771	1.000476
681.193314	1.001538
681.531805	1.000425
681.870247	1.000851
682.208638	1.000838
682.546978	1.000625
682.885268	0.999493
683.223508	1.000380
683.561697	1.000822
683.899836	1.000590
684.237925	0.999931
684.575963	1.000759
684.913951	0.999821
685.251889	0.999948
685.589776	1.000724
685.927614	0.999823
686.265401	1.000017
686.603137	1.000386
686.940824	1.000742
687.278460	1.001191
687.616046	1.000965
687.953582	1.000770
688.291068	1.001045
688.628504	1.000071
