Dividing Wavelength (nm)	Counts (n)	Blue Motor Position (mm): 45.900000	Red Motor Position (mm): 0.000000	
326.493990	0.999170
326.888308	0.999170
327.282561	0.999170
327.676750	1.000154
328.070874	1.001755
328.464933	1.000361
328.858929	1.000832
329.252859	1.000200
329.646726	0.999532
330.040528	1.000693
330.434265	1.001419
330.827938	0.999583
331.221547	1.000458
331.615091	1.000094
332.008571	1.001098
332.401986	0.999646
332.795338	0.999686
333.188625	0.999899
333.581847	0.999643
333.975006	1.001052
334.368100	1.000162
334.761129	1.000352
335.154095	1.000674
335.546996	1.000120
335.939833	0.999607
336.332606	1.000882
336.725315	0.999996
337.117960	1.000677
337.510540	1.000212
337.903056	1.000146
338.295508	1.001879
338.687896	1.001380
339.080220	1.000929
339.472480	0.999724
339.864676	1.000766
340.256807	0.998713
340.648875	1.001593
341.040879	0.999425
341.432818	1.000312
341.824694	1.000165
342.216506	1.001004
342.608253	1.000222
342.999937	0.999738
343.391557	0.999407
343.783113	1.001485
344.174605	1.000454
344.566033	1.000164
344.957397	1.001091
345.348697	1.000316
345.739934	1.000895
346.131106	1.000366
346.522215	0.999868
346.913260	1.000353
347.304241	0.998932
347.695159	0.999037
348.086012	1.000835
348.476802	1.000149
348.867528	1.000341
349.258191	1.000836
349.648789	0.999610
350.039324	0.999137
350.429796	0.999231
350.820203	0.999687
351.210548	0.999996
351.600828	1.000110
351.991045	1.000109
352.381198	1.000223
352.771288	1.000577
353.161314	1.001168
353.551276	0.999998
353.941175	0.998550
354.331010	1.000516
354.720782	0.999475
355.110490	1.000908
355.500135	0.999890
355.889717	0.999599
356.279235	1.000450
356.668689	1.000456
357.058080	1.000752
357.447408	1.000331
357.836672	1.000492
358.225873	1.000647
358.615010	0.998233
359.004084	0.999244
359.393095	1.000068
359.782043	1.000544
360.170927	0.999457
360.559748	0.999447
360.948505	0.998702
361.337199	1.000592
361.725830	1.000464
362.114398	0.999828
362.502903	0.999862
362.891344	0.998928
363.279722	0.999209
363.668037	1.000596
364.056289	1.000173
364.444478	1.000593
364.832603	0.999785
365.220665	0.999339
365.608665	0.999284
365.996601	1.000578
366.384474	0.998775
366.772284	0.998856
367.160031	0.998922
367.547715	0.998439
367.935336	0.998121
368.322893	0.996878
368.710388	0.995534
369.097820	0.994284
369.485189	0.991230
369.872495	0.989382
370.259738	0.988505
370.646918	0.985996
371.034035	0.982690
371.421090	0.979960
371.808081	0.975292
372.195010	0.973815
372.581875	0.968657
372.968678	0.964225
373.355418	0.962871
373.742096	0.956540
374.128710	0.952476
374.515262	0.949001
374.901751	0.944917
375.288177	0.942609
375.674540	0.939066
376.060841	0.936620
376.447079	0.932070
376.833254	0.929888
377.219367	0.928667
377.605417	0.922775
377.991404	0.923454
378.377329	0.921484
378.763191	0.920556
379.148991	0.917176
379.534727	0.915747
379.920402	0.913751
380.306013	0.914947
380.691563	0.912037
381.077049	0.911517
381.462474	0.913514
381.847835	0.911321
382.233134	0.914665
382.618371	0.918510
383.003545	0.914835
383.388657	0.918538
383.773706	0.922090
384.158693	0.923918
384.543618	0.927389
384.928480	0.929102
385.313280	0.931218
385.698017	0.934912
386.082692	0.936704
386.467305	0.940325
386.851856	0.944147
387.236344	0.947371
387.620770	0.951206
388.005133	0.954627
388.389435	0.956256
388.773674	0.959737
389.157851	0.962943
389.541965	0.966395
389.926018	0.970537
390.310008	0.972725
390.693936	0.974886
391.077802	0.977540
391.461606	0.978733
391.845348	0.982919
392.229027	0.982737
392.612645	0.985579
392.996200	0.987083
393.379694	0.987185
393.763125	0.990038
394.146494	0.990397
394.529801	0.991812
394.913047	0.992386
395.296230	0.994482
395.679351	0.995141
396.062410	0.995430
396.445408	0.996547
396.828343	0.997517
397.211217	0.997026
397.594028	0.997600
397.976778	0.999417
398.359466	0.998139
398.742092	0.998845
399.124656	0.998788
399.507158	0.998607
399.889598	0.999864
400.271977	1.000540
400.654294	0.998969
401.036549	1.000027
401.418742	0.999767
401.800874	1.000394
402.182944	0.998832
402.564952	0.999764
402.946898	1.000774
403.328783	0.999749
403.710606	0.999588
404.092367	1.000227
404.474067	1.000909
404.855705	1.000687
405.237282	0.998869
405.618797	1.000354
406.000250	1.000288
406.381642	0.999765
406.762972	1.000389
407.144240	0.999860
407.525447	0.999269
407.906593	1.000052
408.287677	1.000029
408.668700	0.999857
409.049661	1.000962
409.430560	0.999659
409.811399	0.998773
410.192176	0.999944
410.572891	1.000679
410.953545	0.999429
411.334138	1.000193
411.714669	0.999809
412.095139	1.000752
412.475547	0.999746
412.855894	1.000156
413.236180	1.000510
413.616405	0.999585
413.996568	1.000454
414.376670	1.000241
414.756711	0.999682
415.136691	1.000217
415.516609	0.999364
415.896466	1.000586
416.276262	1.000139
416.655997	1.000342
417.035670	1.000521
417.415283	1.000004
417.794834	1.000147
418.174324	1.000081
418.553753	1.000002
418.933121	0.999761
419.312428	1.000605
419.691674	1.000660
420.070859	1.000624
420.449983	1.000320
420.829045	0.999699
421.208047	1.000750
421.586988	0.999761
421.965867	0.999694
422.344686	1.000290
422.723444	0.999856
423.102141	1.000093
423.480777	0.999548
423.859352	0.999943
424.237866	1.000337
424.616319	1.000804
424.994712	1.000586
425.373044	1.000366
425.751314	1.000564
426.129524	1.001218
426.507673	0.999488
426.885762	1.000070
427.263789	0.999855
427.641756	1.000491
428.019662	1.000111
428.397508	0.999857
428.775292	0.999916
429.153016	0.999542
429.530679	1.000721
429.908282	1.000410
430.285824	0.999898
430.663305	1.000764
431.040726	1.000264
431.418086	1.000532
431.795385	1.000775
432.172624	1.001419
432.549802	1.000253
432.926920	0.999960
433.303977	1.000071
433.680974	1.000621
434.057910	1.000266
434.434786	0.999568
434.811601	0.999921
435.188355	1.000611
435.565050	1.000829
435.941683	0.999857
436.318257	1.000089
436.694770	1.000759
437.071222	1.000832
437.447614	1.000228
437.823946	1.000698
438.200218	1.000449
438.576429	0.999590
438.952580	1.000703
439.328670	0.999464
439.704700	0.999924
440.080670	1.000362
440.456580	1.000886
440.832429	0.999460
441.208218	1.001345
441.583947	1.000381
441.959616	0.999644
442.335224	1.001199
442.710773	1.001032
443.086261	1.000592
443.461689	1.000348
443.837057	1.000285
444.212365	1.000854
444.587612	1.000954
444.962800	1.001143
445.337927	1.000990
445.712995	1.000571
446.088002	1.000745
446.462949	0.999962
446.837837	1.001353
447.212664	1.000431
447.587431	1.001113
447.962139	1.000135
448.336786	0.999629
448.711374	0.999936
449.085901	1.000623
449.460369	1.001387
449.834776	1.000358
450.209124	1.000516
450.583412	1.000458
450.957640	1.000230
451.331808	1.001546
451.705917	1.000634
452.079965	0.999971
452.453954	1.001532
452.827883	1.000953
453.201752	1.000653
453.575562	1.000995
453.949311	1.000623
454.323001	1.000750
454.696632	1.000626
455.070202	1.000434
455.443713	1.000577
455.817164	0.999933
456.190556	1.000402
456.563888	1.000887
456.937160	1.000540
457.310373	1.000230
457.683526	1.000790
458.056619	1.001123
458.429653	1.000971
458.802628	1.001011
459.175542	1.000929
459.548398	1.000431
459.921194	1.001005
460.293930	1.000845
460.666607	1.001426
461.039224	1.000153
461.411782	1.001091
461.784280	1.000734
462.156719	1.001773
462.529099	1.001155
462.901419	1.000121
463.273680	1.000330
463.645882	1.001005
464.018024	1.000575
464.390106	1.000549
464.762130	1.000905
465.134094	1.000663
465.505999	1.001343
465.877845	1.000177
466.249631	1.000281
466.621358	0.999483
466.993026	0.999964
467.364634	1.000564
467.736184	1.000598
468.107674	1.000257
468.479105	1.000903
468.850477	1.001175
469.221790	1.000861
469.593043	1.000641
469.964238	1.001042
470.335373	0.999607
470.706449	1.000096
471.077467	1.000668
471.448425	1.000864
471.819324	1.001016
472.190164	1.000728
472.560945	1.000856
472.931667	1.000209
473.302330	1.000770
473.672934	1.000863
474.043479	1.001164
474.413965	1.001195
474.784393	1.000345
475.154761	1.000767
475.525070	1.000100
475.895321	1.000846
476.265513	1.001621
476.635645	1.000988
477.005719	1.000550
477.375734	0.999839
477.745691	0.999926
478.115588	0.999989
478.485427	1.000560
478.855207	1.001290
479.224928	1.000375
479.594591	1.001263
479.964194	1.000187
480.333739	1.001144
480.703226	0.999875
481.072653	1.000390
481.442022	1.000832
481.811333	1.000824
482.180584	1.000040
482.549777	1.000775
482.918912	1.000899
483.287988	1.000711
483.657005	1.000261
484.025964	0.999948
484.394864	1.000374
484.763706	1.000359
485.132489	1.000485
485.501213	1.000675
485.869879	1.000421
486.238487	1.000097
486.607036	1.001155
486.975527	1.000482
487.343959	1.000078
487.712333	1.000512
488.080648	1.000068
488.448905	1.000936
488.817104	1.000218
489.185244	1.001082
489.553326	1.000363
489.921350	1.000614
490.289315	1.000465
490.657222	1.000048
491.025070	1.001005
491.392861	1.000862
491.760593	1.000657
492.128267	1.000436
492.495883	0.999862
492.863440	1.000661
493.230939	1.001208
493.598380	1.000432
493.965763	1.000001
494.333088	0.999696
494.700354	0.999832
495.067563	0.999609
495.434713	1.000641
495.801805	1.000396
496.168839	1.000939
496.535815	1.000734
496.902733	1.000163
497.269593	0.999996
497.636395	0.999710
498.003139	0.999964
498.369825	1.001280
498.736453	1.000668
499.103023	1.000485
499.469535	1.000825
499.835989	1.000737
500.202385	1.000628
500.568723	1.000966
500.935003	1.000813
501.301226	1.000997
501.667390	1.000274
502.033497	1.000389
502.399546	1.000712
502.765537	1.000672
503.131470	1.000143
503.497345	1.001111
503.863163	1.000756
504.228923	1.000019
504.594625	1.000109
504.960269	1.000385
505.325856	1.000973
505.691385	1.000545
506.056856	1.000776
506.422270	1.000277
506.787625	1.000313
507.152924	1.001576
507.518164	1.000419
507.883347	0.999642
508.248472	1.000498
508.613540	1.000001
508.978550	1.000896
509.343503	1.000426
509.708398	1.001500
510.073236	1.000990
510.438016	1.000312
510.802738	1.000381
511.167403	1.000071
511.532010	1.000705
511.896561	1.000525
512.261053	1.000372
512.625488	1.000972
512.989866	1.000459
513.354186	1.000335
513.718449	1.000900
514.082655	1.000714
514.446803	1.000542
514.810894	1.001159
515.174927	1.000620
515.538904	1.001266
515.902822	1.000629
516.266684	1.000665
516.630488	1.001238
516.994235	1.000605
517.357925	1.000864
517.721558	1.000503
518.085133	1.000490
518.448651	1.001013
518.812112	1.001576
519.175516	1.000260
519.538863	1.000046
519.902152	1.000479
520.265385	1.000210
520.628560	0.999706
520.991678	1.001419
521.354739	1.001249
521.717743	1.000663
522.080690	1.000251
522.443580	1.000922
522.806413	1.000097
523.169189	1.000766
523.531908	1.000286
523.894569	1.000090
524.257174	1.000203
524.619722	1.000576
524.982213	1.000008
525.344647	1.000458
525.707025	1.000563
526.069345	1.000634
526.431608	1.000611
526.793815	1.001375
527.155964	1.001397
527.518057	1.001411
527.880093	1.000961
528.242072	1.000371
528.603995	1.000197
528.965860	1.001174
529.327669	1.000539
529.689421	1.000057
530.051117	1.000468
530.412755	1.000809
530.774337	1.000548
531.135862	1.000863
531.497331	1.000375
531.858743	1.001001
532.220098	1.000279
532.581396	1.001323
532.942638	1.000964
533.303824	1.000959
533.664953	1.000261
534.026025	1.001451
534.387040	0.999986
534.747999	1.000381
535.108902	1.000537
535.469748	1.000631
535.830537	1.000542
536.191270	1.000105
536.551947	1.000499
536.912567	1.000185
537.273131	1.000636
537.633638	1.000480
537.994089	1.000346
538.354483	1.000660
538.714821	1.000622
539.075103	1.000925
539.435328	1.000823
539.795497	1.000780
540.155609	1.000829
540.515665	1.000567
540.875665	0.999848
541.235609	1.000516
541.595496	0.999928
541.955328	1.000061
542.315102	1.001126
542.674821	1.000656
543.034483	1.000740
543.394090	0.999630
543.753640	1.001035
544.113134	0.999978
544.472571	1.001118
544.831953	1.000540
545.191278	1.000554
545.550548	1.000028
545.909761	0.999951
546.268918	1.001444
546.628019	1.000789
546.987064	1.000298
547.346053	0.999822
547.704986	1.000562
548.063863	0.999946
548.422684	1.000815
548.781449	1.000254
549.140158	1.001106
549.498811	1.000182
549.857408	0.999902
550.215949	1.000078
550.574434	1.000661
550.932864	1.000665
551.291237	1.000298
551.649555	1.001427
552.007817	1.000891
552.366022	1.000957
552.724173	1.000488
553.082267	1.000507
553.440305	1.000553
553.798288	0.999945
554.156215	1.000045
554.514086	1.000869
554.871902	1.000586
555.229661	1.000189
555.587365	1.000153
555.945014	1.001374
556.302606	0.999943
556.660143	1.000715
557.017625	1.001332
557.375050	0.999913
557.732421	1.000097
558.089735	1.000199
558.446994	1.000638
558.804197	1.000583
559.161345	1.000091
559.518437	0.999903
559.875474	1.000929
560.232455	1.001203
560.589381	1.001802
560.946251	1.000478
561.303065	1.001171
561.659825	1.000826
562.016528	1.001157
562.373177	1.000219
562.729770	1.000252
563.086307	0.999536
563.442789	1.000472
563.799216	0.999882
564.155587	1.000523
564.511904	1.001476
564.868164	0.999288
565.224370	1.001230
565.580520	1.000758
565.936615	1.000919
566.292654	1.000804
566.648638	1.001449
567.004567	1.000138
567.360441	1.000976
567.716260	1.000761
568.072023	1.000136
568.427732	1.000743
568.783385	1.000021
569.138982	1.001017
569.494525	1.000411
569.850013	1.000226
570.205445	1.001361
570.560823	1.000230
570.916145	0.999734
571.271412	1.000144
571.626625	1.000604
571.981782	1.000027
572.336884	1.000729
572.691931	1.000966
573.046923	1.000980
573.401860	1.000623
573.756743	1.000844
574.111570	0.999944
574.466342	1.000985
574.821059	1.000561
575.175722	1.000580
575.530330	1.001268
575.884882	1.000332
576.239380	1.000486
576.593823	1.000324
576.948211	1.000234
577.302544	1.000355
577.656823	1.000593
578.011047	0.999797
578.365216	1.001510
578.719330	1.000153
579.073389	1.000763
579.427394	1.000645
579.781344	1.000749
580.135239	0.999820
580.489080	0.999883
580.842866	1.000006
581.196597	1.000652
581.550273	1.000705
581.903895	1.000645
582.257463	1.000146
582.610975	1.000480
582.964434	1.000449
583.317837	1.001128
583.671186	1.000641
584.024481	1.000065
584.377721	1.000266
584.730906	1.001051
585.084037	1.001191
585.437113	1.001096
585.790135	1.000784
586.143103	1.000900
586.496016	1.000011
586.848874	1.001092
587.201679	1.000164
587.554428	0.999883
587.907124	1.000557
588.259765	1.000893
588.612352	1.001078
588.964884	1.000934
589.317362	1.000353
589.669786	1.000478
590.022155	0.999880
590.374470	1.000157
590.726731	1.000352
591.078937	1.001044
591.431090	1.000470
591.783188	0.999386
592.135232	1.000992
592.487222	1.001065
592.839157	0.999904
593.191038	1.000737
593.542866	1.000452
593.894639	1.000147
594.246358	1.000931
594.598022	1.000462
594.949633	1.000265
595.301190	0.999538
595.652692	1.000670
596.004141	1.000321
596.355535	0.999399
596.706876	1.000826
597.058162	1.000894
597.409395	1.000823
597.760573	1.000136
598.111698	1.000298
598.462768	0.999963
598.813785	0.999356
599.164748	1.000111
599.515657	0.999873
599.866511	1.000323
600.217312	1.000404
600.568060	1.000123
600.918753	1.000484
601.269392	1.000241
601.619978	1.000599
601.970510	1.000265
602.320988	1.000059
602.671412	1.000671
603.021783	1.000264
603.372100	1.000509
603.722363	1.000942
604.072572	1.000913
604.422728	1.000516
604.772830	1.000012
605.122878	1.000682
605.472872	1.000701
605.822813	1.000266
606.172701	0.999841
606.522534	1.000311
606.872314	1.000297
607.222041	0.999661
607.571714	1.000143
607.921333	1.000984
608.270899	0.999675
608.620411	1.000785
608.969870	1.000961
609.319276	1.000100
609.668627	1.000671
610.017926	1.000302
610.367171	1.000341
610.716362	1.000659
611.065500	1.000148
611.414585	1.000537
611.763616	1.000259
612.112594	1.000462
612.461518	0.999129
612.810389	1.000013
613.159207	0.999976
613.507971	0.999855
613.856682	1.000927
614.205340	0.999530
614.553945	1.000049
614.902496	1.000065
615.250994	0.999688
615.599439	1.000461
615.947830	1.000017
616.296169	1.000207
616.644454	1.000374
616.992686	1.000114
617.340864	1.000439
617.688990	1.000333
618.037063	1.000680
618.385082	0.999684
618.733048	0.999356
619.080961	0.999932
619.428821	1.000895
619.776628	0.999747
620.124382	1.000728
620.472083	1.000108
620.819731	1.001583
621.167326	1.000735
621.514868	1.000892
621.862357	1.000449
622.209793	1.000399
622.557176	1.000150
622.904506	1.000020
623.251783	1.000092
623.599007	1.000249
623.946179	0.999334
624.293297	1.000742
624.640363	1.000455
624.987376	0.999278
625.334336	1.000355
625.681243	1.000417
626.028097	1.000249
626.374899	0.999788
626.721647	1.001212
627.068343	0.999469
627.414987	1.000963
627.761577	0.999431
628.108115	0.999640
628.454600	1.000287
628.801032	1.000323
629.147412	1.000690
629.493739	1.000487
629.840014	0.999412
630.186236	0.999907
630.532405	1.000532
630.878521	0.999805
631.224585	0.999968
631.570597	0.999334
631.916556	0.999586
632.262462	0.999513
632.608316	1.001089
632.954117	0.999624
633.299866	0.999847
633.645562	0.999993
633.991206	1.000159
634.336797	0.999433
634.682336	1.000694
635.027823	0.999856
635.373257	1.000131
635.718639	1.000783
636.063968	0.999749
636.409245	1.000286
636.754470	1.000441
637.099642	1.000404
637.444762	1.000439
637.789829	0.999886
638.134845	0.999658
638.479808	0.999915
638.824719	0.999903
639.169577	1.000272
639.514383	1.000114
639.859137	0.999894
640.203839	0.999169
640.548489	0.999910
640.893086	0.999187
641.237632	0.999953
641.582125	0.999895
641.926566	1.000530
642.270955	1.000204
642.615292	0.999492
642.959576	1.000322
643.303809	1.000383
643.647990	0.999726
643.992118	1.000821
644.336195	0.999644
644.680219	0.999847
645.024192	1.000122
645.368112	0.999000
645.711981	0.999178
646.055797	1.000442
646.399562	0.999130
646.743274	1.000225
647.086935	0.998848
647.430544	0.999669
647.774101	0.999641
648.117606	1.000075
648.461059	1.000436
648.804460	0.999720
649.147810	1.000198
649.491108	0.999654
649.834354	0.999708
650.177548	0.999074
650.520690	0.999847
650.863781	0.999507
651.206820	0.999768
651.549807	1.000512
651.892742	1.000940
652.235626	1.000300
652.578458	1.000070
652.921238	1.000417
653.263967	1.000273
653.606644	0.999557
653.949269	1.000523
654.291843	0.999168
654.634365	1.000644
654.976836	0.999425
655.319255	1.000637
655.661622	1.000411
656.003938	0.999593
656.346203	0.999518
656.688416	1.000861
657.030577	0.999271
657.372687	1.000058
657.714746	0.999279
658.056753	0.999564
658.398708	0.999425
658.740612	1.000815
659.082465	0.998638
659.424266	1.000083
659.766016	0.999034
660.107715	1.000129
660.449362	0.999185
660.790958	0.999589
661.132503	0.999602
661.473996	0.999129
661.815438	1.000111
662.156829	1.000266
662.498168	1.000103
662.839456	0.999542
663.180693	0.999846
663.521879	0.999126
663.863013	1.000541
664.204097	0.998757
664.545129	0.999435
664.886110	1.000049
665.227040	0.999937
665.567918	0.999813
665.908746	0.999404
666.249522	0.999212
666.590248	0.999524
666.930922	0.999287
667.271545	0.999464
667.612118	1.000425
667.952639	0.999522
668.293109	0.999169
668.633528	0.999289
668.973896	0.999526
669.314213	0.999956
669.654480	1.000003
669.994695	0.999419
670.334859	0.999937
670.674973	0.999461
671.015035	0.999944
671.355047	0.999514
671.695008	0.999040
672.034918	0.999056
672.374777	0.999743
672.714585	0.998994
673.054342	1.000432
673.394049	0.999195
673.733705	0.998899
674.073310	1.000153
674.412864	0.999521
674.752368	0.999264
675.091820	1.000987
675.431223	1.000102
675.770574	0.999065
676.109875	0.999574
676.449125	0.998669
676.788324	0.999485
677.127473	1.000206
677.466571	0.999879
677.805619	0.999234
678.144616	0.999635
678.483562	0.999632
678.822458	1.000005
679.161303	0.998982
679.500098	0.999333
679.838842	0.998991
680.177535	0.998734
680.516179	0.999008
680.854771	0.999452
681.193314	0.999855
681.531805	0.999216
681.870247	0.999395
682.208638	0.999414
682.546978	0.998910
682.885268	0.999435
683.223508	0.998684
683.561697	0.998278
683.899836	0.999583
684.237925	0.998638
684.575963	0.999119
684.913951	0.999952
685.251889	0.998714
685.589776	0.999487
685.927614	0.999383
686.265401	0.999581
686.603137	0.998703
686.940824	0.998385
687.278460	0.999380
687.616046	0.998866
687.953582	1.000044
688.291068	0.999644
688.628504	0.998564
