Dividing Wavelength (nm)	Blue Motor Position (mm)	Red Motor Position (mm)	
394.000000	48.927363	3.036400
394.100000	48.852963	3.046507
394.200000	48.784026	3.056614
394.300000	48.717656	3.066720
394.400000	48.650956	3.076827
394.500000	48.581031	3.086934
394.600000	48.504982	3.097041
394.700000	48.420824	3.107148
394.800000	48.330420	3.117254
394.900000	48.236639	3.127361
395.000000	48.142349	3.137468
395.100000	48.050418	3.147575
395.200000	47.963341	3.157682
395.300000	47.879640	3.167788
395.400000	47.797882	3.177895
395.500000	47.717089	3.188002
395.600000	47.636285	3.198109
395.700000	47.554493	3.208216
395.800000	47.470716	3.218322
395.900000	47.384413	3.228429
396.000000	47.296661	3.238536
396.100000	47.208775	3.248643
396.200000	47.122069	3.258750
396.300000	47.037859	3.268856
396.400000	46.956973	3.278963
396.500000	46.877718	3.289070
396.600000	46.799893	3.299177
396.700000	46.723618	3.309284
396.800000	46.649015	3.319390
396.900000	46.576205	3.329497
397.000000	46.505307	3.339604
397.100000	46.436767	3.349711
397.200000	46.370667	3.359818
397.300000	46.306357	3.369924
397.400000	46.243189	3.380031
397.500000	46.180513	3.390138
397.600000	46.117678	3.400245
397.700000	46.054035	3.410352
397.800000	45.988951	3.420458
397.900000	45.922771	3.430565
398.000000	45.856014	3.440672
398.100000	45.788859	3.450779
398.200000	45.721488	3.460886
398.300000	45.654078	3.470992
398.400000	45.586809	3.481099
398.500000	45.519862	3.491206
398.600000	45.453331	3.501313
398.700000	45.387036	3.511420
398.800000	45.320901	3.521526
398.900000	45.254858	3.531633
399.000000	45.188843	3.541740
399.100000	45.122789	3.551847
399.200000	45.056631	3.561954
399.300000	44.990292	3.572060
399.400000	44.923202	3.582167
399.500000	44.855407	3.592274
399.600000	44.787382	3.602381
399.700000	44.719601	3.612488
399.800000	44.652541	3.622594
399.900000	44.586677	3.632701
400.000000	44.522484	3.642808
400.100000	44.460093	3.652915
400.200000	44.398573	3.663022
400.300000	44.337887	3.673128
400.400000	44.278097	3.683235
400.500000	44.219264	3.693342
400.600000	44.161449	3.703449
400.700000	44.104713	3.713556
400.800000	44.049118	3.723662
400.900000	43.994723	3.733769
401.000000	43.941361	3.743876
401.100000	43.888877	3.753983
401.200000	43.837248	3.764090
401.300000	43.786450	3.774196
401.400000	43.736460	3.784303
401.500000	43.687257	3.794410
401.600000	43.638816	3.804517
401.700000	43.591114	3.814624
401.800000	43.544130	3.824730
401.900000	43.497839	3.834837
402.000000	43.452081	3.844944
402.100000	43.406764	3.855051
402.200000	43.361938	3.865158
402.300000	43.317649	3.875264
402.400000	43.273944	3.885371
402.500000	43.230870	3.895478
402.600000	43.188476	3.905585
402.700000	43.146808	3.915692
402.800000	43.105914	3.925798
402.900000	43.065840	3.935905
403.000000	43.026635	3.946012
403.100000	42.988359	3.955396
403.200000	42.951207	3.963654
403.300000	42.915116	3.971271
403.400000	42.879936	3.978726
403.500000	42.845519	3.986503
403.600000	42.811716	3.995084
403.700000	42.778377	4.004949
403.800000	42.745355	4.016582
403.900000	42.712500	4.030465
404.000000	42.679664	4.047080
404.100000	42.646697	4.083718
404.200000	42.613451	4.131077
404.300000	42.579777	4.154306
404.400000	42.545526	4.168103
404.500000	42.510550	4.180119
404.600000	42.474732	4.190563
404.700000	42.438157	4.199643
404.800000	42.400969	4.207570
404.900000	42.363307	4.214550
405.000000	42.325313	4.220794
405.100000	42.287127	4.226510
405.200000	42.248889	4.231907
405.300000	42.210741	4.237195
405.400000	42.172822	4.242581
405.500000	42.135274	4.248274
405.600000	42.098238	4.254026
405.700000	42.061853	4.259150
405.800000	42.026261	4.263710
405.900000	41.991591	4.267788
406.000000	41.957658	4.271461
406.100000	41.924304	4.274808
406.200000	41.891463	4.277911
406.300000	41.859069	4.280848
406.400000	41.827057	4.283699
406.500000	41.795360	4.286542
406.600000	41.763913	4.289459
406.700000	41.732650	4.292527
406.800000	41.701505	4.295827
406.900000	41.670412	4.299438
407.000000	41.639306	4.303439
407.100000	41.608120	4.307910
407.200000	41.576790	4.312930
407.300000	41.545248	4.318580
407.400000	41.513430	4.324937
407.500000	41.481322	4.332083
407.600000	41.449122	4.340095
407.700000	41.416865	4.349055
407.800000	41.384559	4.368876
407.900000	41.352212	4.404796
408.000000	41.319833	4.438783
408.100000	41.287430	4.454361
408.200000	41.255013	4.462668
408.300000	41.222589	4.469884
408.400000	41.190168	4.476113
408.500000	41.157757	4.481460
408.600000	41.125366	4.486032
408.700000	41.093003	4.489934
408.800000	41.060677	4.493270
408.900000	41.028396	4.496146
409.000000	40.996167	4.498668
409.100000	40.963918	4.500940
409.200000	40.931610	4.503070
409.300000	40.899264	4.505160
409.400000	40.866896	4.507317
409.500000	40.834525	4.509647
409.600000	40.802170	4.512254
409.700000	40.769849	4.515244
409.800000	40.737579	4.518722
409.900000	40.705380	4.522795
410.000000	40.673269	4.527565
410.100000	40.641266	4.533141
410.200000	40.609388	4.539626
410.300000	40.577653	4.547126
410.400000	40.546080	4.556818
410.500000	40.514687	4.577850
410.600000	40.483566	4.606176
410.700000	40.453068	4.634130
410.800000	40.423139	4.654059
410.900000	40.393660	4.666970
411.000000	40.364515	4.678130
411.100000	40.335584	4.687864
411.200000	40.306751	4.696502
411.300000	40.277898	4.704366
411.400000	40.248907	4.711786
411.500000	40.219659	4.719087
411.600000	40.190038	4.726598
411.700000	40.159926	4.734643
411.800000	40.129205	4.743549
411.900000	40.097756	4.753643
412.000000	40.065463	4.765142
412.100000	40.032208	4.777811
412.200000	39.997870	4.791312
412.300000	39.961611	4.805311
412.400000	39.923134	4.819470
412.500000	39.882877	4.833452
412.600000	39.841277	4.846919
412.700000	39.798771	4.859487
412.800000	39.755796	4.870422
412.900000	39.712789	4.880105
413.000000	39.670186	4.889216
413.100000	39.628426	4.898435
413.200000	39.587945	4.908445
413.300000	39.549180	4.919924
413.400000	39.512569	4.933556
413.500000	39.478204	4.950018
413.600000	39.445052	4.975615
413.700000	39.412904	5.018641
413.800000	39.381651	5.055096
413.900000	39.351180	5.074178
414.000000	39.321382	5.089704
414.100000	39.292145	5.102673
414.200000	39.263358	5.113869
414.300000	39.234912	5.124076
414.400000	39.206693	5.134076
414.500000	39.178593	5.144655
414.600000	39.150500	5.156593
414.700000	39.122303	5.169938
414.800000	39.093892	5.183624
414.900000	39.065155	5.197557
415.000000	39.035982	5.211673
415.100000	39.006261	5.225908
415.200000	38.976071	5.240196
415.300000	38.945764	5.254473
415.400000	38.915363	5.268765
415.500000	38.884875	5.283324
415.600000	38.854310	5.298042
415.700000	38.823678	5.312779
415.800000	38.792987	5.327389
415.900000	38.762247	5.341731
416.000000	38.731466	5.355660
416.100000	38.700654	5.369153
416.200000	38.669820	5.382554
416.300000	38.638973	5.395826
416.400000	38.608123	5.408885
416.500000	38.577277	5.421646
416.600000	38.546446	5.434023
416.700000	38.515638	5.445932
416.800000	38.484823	5.457287
416.900000	38.453772	5.467862
417.000000	38.422495	5.477099
417.100000	38.391047	5.485282
417.200000	38.359483	5.492789
417.300000	38.327856	5.500004
417.400000	38.296223	5.507306
417.500000	38.264637	5.515077
417.600000	38.233152	5.523697
417.700000	38.201825	5.533548
417.800000	38.170708	5.545010
417.900000	38.139858	5.558465
418.000000	38.109328	5.577383
418.100000	38.079173	5.607161
418.200000	38.049448	5.640009
418.300000	38.020208	5.667455
418.400000	37.991498	5.688330
418.500000	37.963220	5.706505
418.600000	37.935306	5.724171
418.700000	37.907726	5.743515
418.800000	37.880452	5.766744
418.900000	37.853455	5.799243
419.000000	37.826706	5.836479
419.100000	37.800176	5.867448
419.200000	37.773835	5.890926
419.300000	37.747656	5.911968
419.400000	37.721608	5.930874
419.500000	37.695663	5.947950
419.600000	37.669793	5.963498
419.700000	37.643968	5.977654
419.800000	37.618158	5.990317
419.900000	37.592336	6.001828
420.000000	37.566472	6.012546
420.100000	37.540537	6.022834
420.200000	37.514503	6.033052
420.300000	37.488359	6.043563
420.400000	37.462234	6.054727
420.500000	37.436154	6.066906
420.600000	37.410117	6.079205
420.700000	37.384122	6.090485
420.800000	37.358167	6.101865
420.900000	37.332249	6.114488
421.000000	37.306367	6.129494
421.100000	37.280518	6.148028
421.200000	37.254702	6.171399
421.300000	37.228915	6.226277
421.400000	37.203155	6.272161
421.500000	37.177422	6.289496
421.600000	37.151713	6.303225
421.700000	37.126025	6.314088
421.800000	37.100358	6.322822
421.900000	37.074709	6.330168
422.000000	37.049075	6.336864
422.100000	37.023456	6.343652
422.200000	36.997849	6.351270
422.300000	36.972254	6.360457
422.400000	36.946672	6.371952
422.500000	36.921104	6.386156
422.600000	36.895553	6.402448
422.700000	36.870020	6.420024
422.800000	36.844507	6.438086
422.900000	36.819015	6.455832
423.000000	36.793546	6.472459
423.100000	36.768103	6.487353
423.200000	36.742686	6.500957
423.300000	36.717298	6.514075
423.400000	36.691939	6.527510
423.500000	36.666613	6.542063
423.600000	36.641319	6.558537
423.700000	36.616061	6.577825
423.800000	36.590840	6.602939
423.900000	36.565658	6.632614
424.000000	36.540515	6.663559
424.100000	36.515415	6.694474
424.200000	36.490353	6.728295
424.300000	36.465276	6.759580
424.400000	36.440178	6.782651
424.500000	36.415070	6.800528
424.600000	36.389962	6.815775
424.700000	36.364863	6.829301
424.800000	36.339782	6.842013
424.900000	36.314730	6.854821
425.000000	36.289717	6.868632
425.100000	36.264752	6.884159
425.200000	36.239844	6.900512
425.300000	36.215005	6.917341
425.400000	36.190243	6.934539
425.500000	36.165568	6.951995
425.600000	36.140991	6.969599
425.700000	36.116520	6.987034
425.800000	36.092165	7.003494
425.900000	36.067937	7.019837
426.000000	36.043846	7.037136
426.100000	36.019900	7.056474
426.200000	35.996110	7.078925
426.300000	35.972495	7.110042
426.400000	35.949053	7.147418
426.500000	35.925769	7.179874
426.600000	35.902628	7.204553
426.700000	35.879618	7.226691
426.800000	35.856724	7.246781
426.900000	35.833931	7.265313
427.000000	35.811226	7.282756
427.100000	35.788595	7.296443
427.200000	35.766023	7.306122
427.300000	35.743496	7.314379
427.400000	35.721000	7.323800
427.500000	35.698522	7.336973
427.600000	35.676047	7.356485
427.700000	35.653561	7.386975
427.800000	35.631049	7.490772
427.900000	35.608499	7.511368
428.000000	35.585895	7.525380
428.100000	35.563223	7.534611
428.200000	35.540470	7.540864
428.300000	35.517622	7.545939
428.400000	35.494668	7.551638
428.500000	35.471708	7.559763
428.600000	35.448781	7.572116
428.700000	35.425880	7.591928
428.800000	35.402995	7.635342
428.900000	35.380118	7.680321
429.000000	35.357239	7.707221
429.100000	35.334351	7.728404
429.200000	35.311444	7.746955
429.300000	35.288511	7.765583
429.400000	35.265541	7.786994
429.500000	35.242528	7.801550
429.600000	35.219461	7.812687
429.700000	35.196333	7.841220
429.800000	35.173134	7.992652
429.900000	35.149857	8.008157
430.000000	35.126492	8.020668
430.100000	35.103030	8.030546
430.200000	35.079464	8.038147
430.300000	35.055784	8.043832
430.400000	35.031982	8.047961
430.500000	35.008048	8.050891
430.600000	34.983931	8.052983
430.700000	34.959495	8.054595
430.800000	34.934769	8.056087
430.900000	34.909792	8.057817
431.000000	34.884605	8.060146
431.100000	34.859246	8.063431
431.200000	34.833757	8.068034
431.300000	34.808176	8.074311
431.400000	34.782544	8.082623
431.500000	34.756900	8.093736
431.600000	34.731285	8.113276
431.700000	34.705738	8.140525
431.800000	34.680298	8.172349
431.900000	34.655007	8.208746
432.000000	34.629903	8.259028
432.100000	34.605026	8.294526
432.200000	34.580417	8.311690
432.300000	34.556115	8.323154
432.400000	34.532160	8.331120
432.500000	34.508591	8.337790
432.600000	34.485417	8.345362
432.700000	34.462531	8.356038
432.800000	34.439904	8.372021
432.900000	34.417516	8.396578
433.000000	34.395347	8.490931
433.100000	34.373377	8.533313
433.200000	34.351586	8.563564
433.300000	34.329955	8.586189
433.400000	34.308463	8.604766
433.500000	34.287090	8.619410
433.600000	34.265818	8.631123
433.700000	34.244625	8.641206
433.800000	34.223492	8.650964
433.900000	34.202400	8.661703
434.000000	34.181327	8.674727
434.100000	34.160255	8.691341
434.200000	34.139163	8.716479
434.300000	34.118032	8.753357
434.400000	34.096842	8.790174
434.500000	34.075572	8.820015
434.600000	34.054203	8.848461
434.700000	34.032716	8.874261
434.800000	34.011089	8.895783
434.900000	33.989326	8.912545
435.000000	33.967550	8.926340
435.100000	33.945779	8.938160
435.200000	33.924011	8.948978
435.300000	33.902242	8.959766
435.400000	33.880469	8.971496
435.500000	33.858687	8.985140
435.600000	33.836893	9.001685
435.700000	33.815083	9.022766
435.800000	33.793254	9.047889
435.900000	33.771403	9.075485
436.000000	33.749525	9.104038
436.100000	33.727617	9.135935
436.200000	33.705675	9.169908
436.300000	33.683696	9.201404
436.400000	33.661676	9.229086
436.500000	33.639611	9.255038
436.600000	33.617498	9.279775
436.700000	33.595333	9.303807
436.800000	33.573113	9.326648
436.900000	33.550834	9.348325
437.000000	33.528493	9.369832
437.100000	33.506084	9.392163
437.200000	33.483547	9.416474
437.300000	33.460739	9.443398
437.400000	33.437687	9.470842
437.500000	33.414427	9.496430
437.600000	33.390995	9.518091
437.700000	33.367426	9.536438
437.800000	33.343757	9.553345
437.900000	33.320021	9.570684
438.000000	33.296256	9.590321
438.100000	33.272496	9.614617
438.200000	33.248778	9.648483
438.300000	33.225136	9.684519
438.400000	33.201607	9.712552
438.500000	33.178227	9.731835
438.600000	33.155029	9.747052
438.700000	33.132052	9.761648
438.800000	33.109329	9.779061
438.900000	33.086897	9.802735
439.000000	33.064791	9.849530
439.100000	33.043046	9.905590
439.200000	33.021700	9.931767
439.300000	33.000786	9.951064
439.400000	32.980304	9.966450
439.500000	32.960206	9.980554
439.600000	32.940463	9.996010
439.700000	32.921045	10.015299
439.800000	32.901923	10.037132
439.900000	32.883067	10.060599
440.000000	32.864448	10.085921
440.100000	32.846037	10.113347
440.200000	32.827803	10.146760
440.300000	32.809719	10.182978
440.400000	32.791753	10.213614
440.500000	32.773878	10.237389
440.600000	32.756063	10.258318
440.700000	32.738279	10.277463
440.800000	32.720497	10.295890
440.900000	32.702687	10.314648
441.000000	32.684821	10.331742
441.100000	32.666867	10.346732
441.200000	32.648798	10.361851
441.300000	32.630584	10.379330
441.400000	32.612194	10.401399
441.500000	32.593601	10.433933
441.600000	32.574774	10.487354
441.700000	32.555685	10.540661
441.800000	32.536303	10.594140
441.900000	32.516599	10.631308
442.000000	32.496543	10.658634
442.100000	32.476064	10.681419
442.200000	32.455164	10.702137
442.300000	32.433887	10.723138
442.400000	32.412274	10.743832
442.500000	32.390368	10.763608
442.600000	32.368211	10.782608
442.700000	32.345846	10.800974
442.800000	32.323315	10.818848
442.900000	32.300659	10.834428
443.000000	32.277922	10.847328
443.100000	32.255146	10.859651
443.200000	32.232374	10.873501
443.300000	32.209646	10.890979
443.400000	32.187007	10.914189
443.500000	32.164497	10.964955
443.600000	32.142160	11.022323
443.700000	32.120038	11.045675
443.800000	32.098173	11.061966
443.900000	32.076608	11.074318
444.000000	32.055384	11.085854
444.100000	32.034545	11.099696
444.200000	32.014132	11.118967
444.300000	31.994175	11.151869
444.400000	31.974505	11.195142
444.500000	31.955046	11.228074
444.600000	31.935786	11.250621
444.700000	31.916716	11.269514
444.800000	31.897825	11.286339
444.900000	31.879103	11.302684
445.000000	31.860539	11.320136
445.100000	31.842124	11.339300
445.200000	31.823846	11.358789
445.300000	31.805695	11.378441
445.400000	31.787662	11.398141
445.500000	31.769735	11.417778
445.600000	31.751905	11.436820
445.700000	31.734160	11.454326
445.800000	31.716491	11.471645
445.900000	31.698887	11.490315
446.000000	31.681337	11.511868
446.100000	31.663832	11.537345
446.200000	31.646361	11.567068
446.300000	31.628913	11.609602
446.400000	31.611479	11.706078
446.500000	31.594048	11.769670
446.600000	31.576609	11.818778
446.700000	31.559152	11.860273
446.800000	31.541666	11.893104
446.900000	31.524142	11.916219
447.000000	31.506569	11.928565
447.100000	31.488959	11.897013
447.200000	31.471387	11.830972
447.300000	31.453860	11.860404
447.400000	31.436375	11.913299
447.500000	31.418931	11.972188
447.600000	31.401526	12.019595
447.700000	31.384158	12.044256
447.800000	31.366825	12.062278
447.900000	31.349526	12.077154
448.000000	31.332259	12.090097
448.100000	31.315021	12.102317
448.200000	31.297812	12.115027
448.300000	31.280629	12.129440
448.400000	31.263471	12.143477
448.500000	31.246335	12.153466
448.600000	31.229220	12.163623
448.700000	31.212124	12.178365
448.800000	31.195046	12.202115
448.900000	31.177983	12.253794
449.000000	31.160934	12.355734
449.100000	31.143896	12.378751
449.200000	31.126869	12.393324
449.300000	31.109850	12.402651
449.400000	31.092837	12.409931
449.500000	31.075829	12.418364
449.600000	31.058824	12.431148
449.700000	31.041820	12.449741
449.800000	31.024815	12.471016
449.900000	31.007808	12.494380
450.000000	30.990800	12.519428
450.100000	30.973813	12.546122
450.200000	30.956848	12.577398
450.300000	30.939903	12.610096
450.400000	30.922979	12.639297
450.500000	30.906072	12.663330
450.600000	30.889183	12.684807
450.700000	30.872310	12.705802
450.800000	30.855451	12.728390
450.900000	30.838606	12.754871
451.000000	30.821774	12.785708
451.100000	30.804952	12.816945
451.200000	30.788140	12.844374
451.300000	30.771337	12.867387
451.400000	30.754542	12.888240
451.500000	30.737753	12.908666
451.600000	30.720968	12.930397
451.700000	30.704188	12.955276
451.800000	30.687410	12.983658
451.900000	30.670633	13.012730
452.000000	30.653857	13.039445
452.100000	30.637080	13.061387
452.200000	30.620300	13.079986
452.300000	30.603517	13.098095
452.400000	30.586729	13.118574
452.500000	30.569935	13.144289
452.600000	30.553135	13.183306
452.700000	30.536325	13.229202
452.800000	30.519507	13.269649
452.900000	30.502677	13.309003
453.000000	30.485832	13.340828
453.100000	30.468968	13.360728
453.200000	30.452085	13.373677
453.300000	30.435187	13.383047
453.400000	30.418275	13.392085
453.500000	30.401352	13.404041
453.600000	30.384420	13.422165
453.700000	30.367481	13.451486
453.800000	30.350537	13.551922
453.900000	30.333591	13.588041
454.000000	30.316645	13.612679
454.100000	30.299700	13.631208
454.200000	30.282760	13.648997
454.300000	30.265826	13.666213
454.400000	30.248900	13.680684
454.500000	30.231985	13.693673
454.600000	30.215083	13.706440
454.700000	30.198197	13.720246
454.800000	30.181327	13.736352
454.900000	30.164478	13.756166
455.000000	30.147649	13.782095
455.100000	30.130845	13.812474
455.200000	30.114067	13.844530
455.300000	30.097318	13.876700
455.400000	30.080599	13.910821
455.500000	30.063913	13.948146
455.600000	30.047261	13.997632
455.700000	30.030647	14.059792
455.800000	30.014072	14.116806
455.900000	29.997539	14.150754
456.000000	29.981028	14.075931
456.100000	29.964529	14.178759
456.200000	29.948042	14.254927
456.300000	29.931569	14.273359
456.400000	29.915110	14.286606
456.500000	29.898667	14.295950
456.600000	29.882240	14.302678
456.700000	29.865831	14.308074
456.800000	29.849440	14.313424
456.900000	29.833068	14.320012
457.000000	29.816716	14.329121
457.100000	29.800386	14.342038
457.200000	29.784077	14.361340
457.300000	29.767792	14.422938
457.400000	29.751530	14.516431
457.500000	29.735293	14.606258
457.600000	29.719083	14.656862
457.700000	29.702899	14.492818
457.800000	29.686742	14.649410
457.900000	29.670615	14.761509
458.000000	29.654517	14.790065
458.100000	29.638449	14.810308
458.200000	29.622413	14.825202
458.300000	29.606410	14.837712
458.400000	29.590440	14.850802
458.500000	29.574504	14.867262
458.600000	29.558604	14.886669
458.700000	29.542739	14.907874
458.800000	29.526912	14.930166
458.900000	29.511124	14.952839
459.000000	29.495374	14.975183
459.100000	29.479666	14.996490
459.200000	29.464000	15.016053
459.300000	29.448373	15.033160
459.400000	29.432786	15.047107
459.500000	29.417235	15.057182
459.600000	29.401720	15.062677
