Dividing Wavelength (nm)	Power (W)	
300.000000	22.707443
301.000000	14.739696
302.000000	42.267800
303.000000	9.065269
304.000000	2.922709
305.000000	68.232244
306.000000	26.407488
307.000000	40.323309
308.000000	15.051395
309.000000	77.873142
310.000000	67.861109
311.000000	1.925315
312.000000	99.018639
313.000000	63.664004
314.000000	96.392047
315.000000	69.833221
316.000000	87.538768
317.000000	88.220555
318.000000	81.658543
319.000000	48.648310
320.000000	11.521367
321.000000	65.209320
322.000000	68.768380
323.000000	83.570026
324.000000	77.852217
325.000000	61.228282
326.000000	32.511448
327.000000	9.694233
328.000000	63.677984
329.000000	9.081513
330.000000	52.126631
331.000000	59.668428
332.000000	88.024515
333.000000	63.227003
334.000000	76.478055
335.000000	32.496445
336.000000	8.624808
337.000000	5.446421
338.000000	35.996000
339.000000	77.464044
340.000000	23.093507
341.000000	88.265891
342.000000	92.251148
343.000000	20.664406
344.000000	32.197246
345.000000	22.213322
346.000000	44.521480
347.000000	62.546599
348.000000	70.379865
349.000000	74.726957
350.000000	70.073648
351.000000	89.974919
352.000000	30.499667
353.000000	7.040894
354.000000	15.888037
355.000000	63.401346
356.000000	48.083510
357.000000	92.233774
358.000000	1.859569
359.000000	95.913867
360.000000	36.375713
361.000000	22.338703
362.000000	78.912485
363.000000	8.166847
364.000000	39.424740
365.000000	92.594598
366.000000	45.493905
367.000000	31.767750
368.000000	74.319099
369.000000	41.109063
370.000000	87.918209
371.000000	98.689137
372.000000	27.095889
373.000000	54.020126
374.000000	37.905541
375.000000	19.190805
376.000000	87.681817
377.000000	45.420140
378.000000	68.231549
379.000000	50.274429
380.000000	1.676968
381.000000	59.403815
382.000000	23.821224
383.000000	5.389227
384.000000	69.540488
385.000000	95.520918
386.000000	24.131826
387.000000	15.002956
388.000000	15.351163
389.000000	82.895369
390.000000	69.001792
391.000000	78.864526
392.000000	40.729860
393.000000	60.448617
394.000000	91.862871
395.000000	83.041300
396.000000	9.615248
397.000000	14.691025
398.000000	91.391483
399.000000	81.092402
400.000000	68.198161
401.000000	70.947923
402.000000	72.690368
403.000000	28.450087
404.000000	4.400773
405.000000	8.229463
406.000000	51.878064
407.000000	49.341458
408.000000	8.920507
409.000000	41.073448
410.000000	7.144749
411.000000	13.006691
412.000000	1.858888
413.000000	9.740349
414.000000	7.381046
415.000000	56.842715
416.000000	16.278261
417.000000	18.394301
418.000000	25.445539
419.000000	22.936273
420.000000	75.163985
421.000000	58.412899
422.000000	11.565264
423.000000	68.605671
424.000000	97.577034
425.000000	12.129941
426.000000	66.922005
427.000000	40.935199
428.000000	59.926918
429.000000	26.527978
430.000000	30.095799
431.000000	37.607485
432.000000	81.799217
433.000000	59.337788
434.000000	80.712726
435.000000	35.223372
436.000000	3.253696
437.000000	62.770482
438.000000	47.166462
439.000000	52.923829
440.000000	31.898667
441.000000	78.960063
442.000000	54.415933
443.000000	90.701745
444.000000	27.802716
445.000000	66.003638
446.000000	3.458143
447.000000	93.587980
448.000000	84.123806
449.000000	84.451837
450.000000	56.380775
451.000000	33.627137
452.000000	80.018986
453.000000	42.292817
454.000000	2.410522
455.000000	55.389835
456.000000	35.110739
457.000000	10.501032
458.000000	93.997720
459.000000	50.263521
460.000000	96.186190
461.000000	87.518940
462.000000	65.401438
463.000000	10.463677
464.000000	22.473681
465.000000	42.398485
466.000000	19.964544
467.000000	66.800903
468.000000	58.677824
469.000000	11.939559
470.000000	76.504804
471.000000	50.451442
472.000000	97.446944
473.000000	68.565971
474.000000	62.581330
475.000000	80.031684
476.000000	92.237218
477.000000	29.431480
478.000000	85.922048
479.000000	67.767449
480.000000	89.136877
481.000000	6.721301
482.000000	37.049811
483.000000	52.054556
484.000000	93.742135
485.000000	95.594666
486.000000	52.331909
487.000000	13.670004
488.000000	7.019229
489.000000	79.854631
490.000000	92.987797
491.000000	22.183148
492.000000	54.863895
493.000000	0.158638
494.000000	39.355029
495.000000	44.517601
496.000000	31.154482
497.000000	29.691092
498.000000	85.782320
499.000000	0.095494
500.000000	0.211153
501.000000	64.244211
502.000000	6.628443
503.000000	42.358719
504.000000	95.563959
505.000000	14.221288
506.000000	22.678148
507.000000	29.989617
508.000000	21.927025
509.000000	46.423104
510.000000	18.708218
511.000000	69.840743
512.000000	81.723046
513.000000	92.694618
514.000000	50.350343
515.000000	71.764822
516.000000	82.663763
517.000000	83.617103
518.000000	46.279965
519.000000	5.609347
520.000000	65.177882
521.000000	51.807365
522.000000	1.263266
523.000000	21.582939
524.000000	53.229663
525.000000	87.089073
526.000000	23.507905
527.000000	73.571524
528.000000	31.363069
529.000000	11.868497
530.000000	18.504385
531.000000	65.775002
532.000000	62.740605
533.000000	36.487484
534.000000	29.994593
535.000000	64.260860
536.000000	61.305912
537.000000	22.841627
538.000000	12.356675
539.000000	36.987037
540.000000	68.624204
541.000000	98.712026
542.000000	50.170788
543.000000	84.178075
544.000000	77.925926
545.000000	55.705883
546.000000	99.915752
547.000000	71.828430
548.000000	79.675565
549.000000	98.722523
550.000000	69.765534
551.000000	66.132446
552.000000	15.432006
553.000000	5.233500
554.000000	32.115995
555.000000	31.009669
556.000000	36.165823
557.000000	80.983404
558.000000	92.579505
559.000000	27.954855
560.000000	42.957298
561.000000	7.728161
562.000000	59.598248
563.000000	50.867122
564.000000	29.775203
565.000000	33.164058
566.000000	15.130815
567.000000	48.654454
568.000000	69.122500
569.000000	75.691066
570.000000	83.514029
571.000000	36.492906
572.000000	63.351613
573.000000	52.852059
574.000000	73.220678
575.000000	74.952396
576.000000	96.943452
577.000000	76.125733
578.000000	59.545093
579.000000	82.428719
580.000000	83.251959
581.000000	40.718401
582.000000	50.456639
583.000000	9.311343
584.000000	53.164171
585.000000	75.317554
586.000000	55.671795
587.000000	36.187189
588.000000	7.507644
589.000000	42.066954
590.000000	86.687216
591.000000	93.775027
592.000000	83.369495
593.000000	82.597251
594.000000	19.105216
595.000000	16.962431
596.000000	15.191612
597.000000	57.558674
598.000000	20.255335
599.000000	97.139218
600.000000	67.083995
601.000000	52.318396
602.000000	72.011466
603.000000	26.557854
604.000000	6.075352
605.000000	17.781153
606.000000	10.845196
607.000000	66.965740
608.000000	69.785280
609.000000	44.474180
610.000000	89.656930
611.000000	19.001009
612.000000	39.536337
613.000000	10.348970
614.000000	6.700204
615.000000	71.668023
616.000000	72.371440
617.000000	54.592224
618.000000	18.613246
619.000000	2.221620
620.000000	51.845769
621.000000	84.721515
622.000000	35.963868
623.000000	26.369674
624.000000	69.010767
625.000000	80.292516
626.000000	49.878099
627.000000	61.484210
628.000000	24.673027
629.000000	31.045369
630.000000	65.874385
631.000000	54.123170
632.000000	17.772958
633.000000	85.517557
634.000000	4.499261
635.000000	35.452264
636.000000	8.307222
637.000000	4.542468
638.000000	40.315168
639.000000	50.892320
640.000000	0.552344
641.000000	62.302327
642.000000	45.948805
643.000000	30.157640
644.000000	78.365230
645.000000	75.057521
646.000000	54.157956
647.000000	70.228605
648.000000	91.179537
649.000000	28.922296
650.000000	18.928092
651.000000	22.571915
652.000000	5.280590
653.000000	70.466352
654.000000	5.016101
655.000000	84.915284
656.000000	17.054672
657.000000	17.734603
658.000000	45.284038
659.000000	59.459731
660.000000	19.992090
661.000000	30.345665
662.000000	55.870553
663.000000	31.045435
664.000000	86.520007
665.000000	16.532257
666.000000	89.870216
667.000000	56.936074
668.000000	58.265077
669.000000	19.334657
670.000000	38.182999
671.000000	26.799340
672.000000	19.740882
673.000000	59.861537
674.000000	71.624467
675.000000	67.687872
676.000000	64.250773
677.000000	46.901663
678.000000	19.898972
679.000000	35.040281
680.000000	88.302806
681.000000	50.537423
682.000000	35.977586
683.000000	75.112527
684.000000	41.327530
685.000000	48.943353
686.000000	15.370007
687.000000	80.100940
688.000000	24.924695
689.000000	21.926478
690.000000	7.009447
691.000000	31.354006
692.000000	68.364834
693.000000	51.779960
694.000000	45.161900
695.000000	30.139807
696.000000	40.746377
697.000000	84.413466
698.000000	88.982251
699.000000	46.106700
700.000000	56.679901
701.000000	21.467707
702.000000	82.131478
703.000000	16.585903
704.000000	66.677324
705.000000	32.753916
706.000000	13.943234
707.000000	99.926042
708.000000	25.339982
709.000000	12.403814
710.000000	97.833173
711.000000	23.437260
712.000000	67.881179
713.000000	39.896510
714.000000	30.224534
715.000000	15.036816
716.000000	1.479359
717.000000	79.436565
718.000000	62.266118
719.000000	61.356767
720.000000	70.856416
721.000000	89.306829
722.000000	35.466523
723.000000	36.472120
724.000000	32.459692
725.000000	78.451631
726.000000	76.612193
727.000000	26.319213
728.000000	21.656594
729.000000	65.406226
730.000000	12.238273
731.000000	49.461449
732.000000	52.412404
733.000000	86.005148
734.000000	25.200003
735.000000	99.626283
736.000000	93.337537
737.000000	89.944333
738.000000	86.726286
739.000000	13.899581
740.000000	91.461573
741.000000	18.099027
742.000000	52.779134
743.000000	15.147192
744.000000	38.462025
745.000000	69.665013
746.000000	38.539297
747.000000	80.049953
748.000000	75.007144
749.000000	60.897228
750.000000	29.623393
751.000000	88.204024
752.000000	2.724403
753.000000	12.464985
754.000000	53.259230
755.000000	94.957755
756.000000	33.223689
757.000000	39.467557
758.000000	71.805202
759.000000	35.238397
760.000000	43.031405
761.000000	73.979391
762.000000	43.718640
763.000000	52.221811
764.000000	17.699062
765.000000	26.421161
766.000000	99.214893
767.000000	96.131799
768.000000	49.762545
769.000000	89.209052
770.000000	35.002977
771.000000	75.947432
772.000000	56.712993
773.000000	19.253696
774.000000	99.362474
775.000000	36.063448
776.000000	76.844096
777.000000	9.732439
778.000000	57.701218
779.000000	5.313280
780.000000	44.284528
781.000000	24.420417
782.000000	14.108369
783.000000	41.661941
784.000000	18.326384
785.000000	41.400679
786.000000	84.604391
787.000000	6.668541
788.000000	3.311388
789.000000	58.408601
790.000000	56.258638
791.000000	11.884479
792.000000	17.411886
793.000000	41.914395
794.000000	64.977399
795.000000	44.195328
796.000000	75.095323
797.000000	16.854872
798.000000	44.285117
799.000000	94.723293
800.000000	50.109598
801.000000	47.598450
802.000000	55.721251
803.000000	49.389960
804.000000	10.207549
805.000000	36.372458
806.000000	7.280873
807.000000	23.943151
808.000000	35.211351
809.000000	79.121939
810.000000	93.533507
811.000000	11.409418
812.000000	64.217859
813.000000	62.637704
814.000000	59.000461
815.000000	26.068087
816.000000	61.297265
817.000000	67.042143
818.000000	51.922922
819.000000	43.606372
820.000000	86.605672
821.000000	75.595817
822.000000	64.298448
823.000000	92.560238
824.000000	3.163107
825.000000	66.936049
826.000000	55.457972
827.000000	48.053779
828.000000	89.151403
829.000000	39.122753
830.000000	50.122628
831.000000	66.020179
832.000000	38.758566
833.000000	5.670592
834.000000	66.205939
835.000000	9.712108
836.000000	52.820997
837.000000	74.341330
838.000000	3.277289
839.000000	10.126606
840.000000	27.690312
841.000000	54.653776
842.000000	23.072193
843.000000	64.030763
844.000000	76.629146
845.000000	93.887404
846.000000	77.830095
847.000000	30.377982
848.000000	47.110227
849.000000	40.181608
850.000000	35.327158
851.000000	32.720704
852.000000	65.506243
853.000000	80.933171
854.000000	7.326609
855.000000	73.107739
856.000000	91.396532
857.000000	69.048162
858.000000	52.396972
859.000000	52.947984
860.000000	67.065166
861.000000	56.474916
862.000000	20.846866
863.000000	13.354613
864.000000	59.591881
865.000000	42.903022
866.000000	88.690033
867.000000	50.078489
868.000000	50.592533
869.000000	80.845417
870.000000	43.530913
871.000000	0.683240
872.000000	50.989916
873.000000	27.167247
874.000000	24.401562
875.000000	71.885068
876.000000	45.203066
877.000000	73.243092
878.000000	87.952658
879.000000	26.646587
880.000000	75.448398
881.000000	19.328988
882.000000	30.306497
883.000000	75.247123
884.000000	70.384096
885.000000	78.264078
886.000000	42.884848
887.000000	14.158133
888.000000	38.968924
889.000000	66.170866
890.000000	43.819777
891.000000	16.748548
892.000000	9.284028
893.000000	85.211068
894.000000	8.410155
895.000000	42.150017
896.000000	14.934323
897.000000	90.603772
898.000000	84.289513
899.000000	9.145406
900.000000	29.083215
901.000000	1.723625
902.000000	41.287284
903.000000	17.545830
904.000000	93.878101
905.000000	73.773931
906.000000	23.065821
907.000000	95.410209
908.000000	69.786095
909.000000	54.420789
910.000000	5.682430
911.000000	80.215600
912.000000	96.986085
913.000000	58.676485
914.000000	97.680507
915.000000	98.352940
916.000000	99.446488
917.000000	42.025103
918.000000	47.989574
919.000000	11.508412
920.000000	60.693282
921.000000	85.155648
922.000000	67.667824
923.000000	27.238028
924.000000	60.379392
925.000000	25.035011
926.000000	72.890147
927.000000	48.164576
928.000000	94.972249
929.000000	77.894385
930.000000	12.560986
931.000000	37.356372
932.000000	30.229648
933.000000	66.040616
934.000000	28.848461
935.000000	35.657950
936.000000	67.753553
937.000000	28.711952
938.000000	29.386289
939.000000	79.024375
940.000000	25.290090
941.000000	19.366379
942.000000	75.609552
943.000000	92.506387
944.000000	3.056848
945.000000	9.663205
946.000000	38.378744
947.000000	76.636221
948.000000	64.233111
949.000000	23.508413
950.000000	72.199773
951.000000	57.653162
952.000000	71.141082
953.000000	98.406505
954.000000	59.891653
955.000000	62.944497
956.000000	37.616946
957.000000	40.303924
958.000000	44.987580
959.000000	70.989813
960.000000	48.783777
961.000000	55.412987
962.000000	18.529961
963.000000	4.948115
964.000000	5.637245
965.000000	81.433145
966.000000	39.835277
967.000000	9.213207
968.000000	77.695943
969.000000	34.775003
970.000000	1.447242
971.000000	33.338697
972.000000	52.154725
973.000000	88.358504
974.000000	29.435747
975.000000	24.655748
976.000000	39.393132
977.000000	67.651402
978.000000	89.188304
979.000000	71.367689
980.000000	50.838419
981.000000	49.071141
982.000000	27.366139
983.000000	49.456209
984.000000	24.943823
985.000000	89.466166
986.000000	97.010628
987.000000	28.664386
988.000000	48.143078
989.000000	20.699814
990.000000	89.833136
991.000000	70.946166
992.000000	51.058751
993.000000	24.907450
994.000000	71.439014
995.000000	15.003012
996.000000	72.047743
997.000000	92.173839
998.000000	72.417504
999.000000	74.081112
1000.000000	75.936270
1001.000000	29.686818
1002.000000	73.052723
1003.000000	78.795992
1004.000000	69.231447
1005.000000	11.927727
1006.000000	9.054873
1007.000000	27.122960
1008.000000	14.434723
1009.000000	49.997345
1010.000000	90.063577
1011.000000	28.398302
1012.000000	34.603431
1013.000000	81.782287
1014.000000	19.859599
1015.000000	22.504572
1016.000000	25.106921
1017.000000	24.363733
1018.000000	30.643902
1019.000000	94.001534
1020.000000	15.629612
1021.000000	52.974003
1022.000000	42.708368
1023.000000	8.715098
1024.000000	43.107875
1025.000000	57.425443
1026.000000	90.733109
1027.000000	69.812733
1028.000000	34.657661
1029.000000	41.654912
1030.000000	88.033125
1031.000000	99.271460
1032.000000	8.787740
1033.000000	65.595100
1034.000000	40.937575
1035.000000	19.000520
1036.000000	47.099608
1037.000000	12.925136
1038.000000	20.169917
1039.000000	53.098634
1040.000000	90.952288
1041.000000	32.140964
1042.000000	65.034948
1043.000000	72.741643
1044.000000	24.892012
1045.000000	67.542758
1046.000000	98.198475
1047.000000	47.306962
1048.000000	91.579708
1049.000000	21.331959
1050.000000	92.938629
1051.000000	96.847840
1052.000000	70.358555
1053.000000	71.638353
1054.000000	29.287794
1055.000000	52.630588
1056.000000	48.381089
1057.000000	1.689010
1058.000000	24.488216
1059.000000	81.414367
1060.000000	29.810768
1061.000000	23.702246
1062.000000	89.209467
1063.000000	87.611128
1064.000000	88.562058
1065.000000	13.287783
1066.000000	22.349539
1067.000000	64.910313
1068.000000	97.051214
1069.000000	12.276993
1070.000000	34.809445
1071.000000	47.431194
1072.000000	34.845450
1073.000000	35.912646
1074.000000	76.798826
1075.000000	11.904717
1076.000000	27.611214
1077.000000	60.940048
1078.000000	10.933682
1079.000000	0.671572
1080.000000	96.056156
1081.000000	14.245344
1082.000000	56.571304
1083.000000	13.893167
1084.000000	70.932381
1085.000000	35.507387
1086.000000	74.921917
1087.000000	96.403056
1088.000000	9.949467
1089.000000	17.401890
1090.000000	74.918273
1091.000000	35.452280
1092.000000	54.539870
1093.000000	97.558157
1094.000000	21.130889
1095.000000	74.827048
1096.000000	28.188073
1097.000000	73.078860
1098.000000	10.718895
1099.000000	66.693604
1100.000000	54.523672
