Dividing Wavelength (nm)	Power (W)	
300.000000	21.784341
301.000000	89.941932
302.000000	14.830814
303.000000	0.219202
304.000000	83.212772
305.000000	21.477678
306.000000	48.301865
307.000000	1.254718
308.000000	57.837959
309.000000	62.394203
310.000000	87.749601
311.000000	79.214216
312.000000	79.069575
313.000000	50.480031
314.000000	3.336312
315.000000	39.008513
316.000000	15.588562
317.000000	83.629531
318.000000	67.331699
319.000000	23.955657
320.000000	18.765281
321.000000	77.418694
322.000000	32.090588
323.000000	95.847565
324.000000	86.735895
325.000000	79.895711
326.000000	1.246166
327.000000	70.702639
328.000000	2.915297
329.000000	98.631500
330.000000	87.042713
331.000000	99.957474
332.000000	61.416833
333.000000	85.824493
334.000000	87.195251
335.000000	56.512745
336.000000	47.897917
337.000000	2.555377
338.000000	94.728777
339.000000	34.440016
340.000000	58.676596
341.000000	30.610073
342.000000	30.060340
343.000000	72.998825
344.000000	85.657052
345.000000	40.877461
346.000000	8.217783
347.000000	47.981700
348.000000	74.365858
349.000000	43.676103
350.000000	1.619112
351.000000	41.073519
352.000000	0.605586
353.000000	86.380646
354.000000	28.418448
355.000000	49.648682
356.000000	33.449341
357.000000	56.752557
358.000000	65.394329
359.000000	42.516301
360.000000	46.311088
361.000000	1.468488
362.000000	55.962393
363.000000	81.468511
364.000000	56.525011
365.000000	22.407288
366.000000	21.918473
367.000000	47.117159
368.000000	77.346960
369.000000	10.105031
370.000000	32.923872
371.000000	49.840326
372.000000	81.194535
373.000000	36.500877
374.000000	0.868524
375.000000	38.551270
376.000000	34.348353
377.000000	80.939195
378.000000	6.855015
379.000000	7.530162
380.000000	40.594271
381.000000	15.364609
382.000000	81.994921
383.000000	30.197509
384.000000	93.817361
385.000000	25.656888
386.000000	67.834086
387.000000	84.355583
388.000000	0.238186
389.000000	23.442389
390.000000	18.842397
391.000000	93.544494
392.000000	78.883700
393.000000	97.225447
394.000000	54.869702
395.000000	94.362824
396.000000	49.784800
397.000000	48.751935
398.000000	82.077787
399.000000	82.476529
400.000000	8.759773
401.000000	7.498999
402.000000	64.207672
403.000000	25.761257
404.000000	82.693831
405.000000	19.247243
406.000000	22.887233
407.000000	96.160097
408.000000	99.561239
409.000000	99.480572
410.000000	56.008959
411.000000	75.866443
412.000000	39.472780
413.000000	28.790636
414.000000	88.715565
415.000000	16.346226
416.000000	11.540601
417.000000	70.087909
418.000000	73.313769
419.000000	26.584973
420.000000	54.241057
421.000000	17.620867
422.000000	33.514548
423.000000	10.142180
424.000000	78.009835
425.000000	8.738890
426.000000	11.211107
427.000000	55.037577
428.000000	73.980133
429.000000	27.151696
430.000000	30.819534
431.000000	31.207477
432.000000	22.697411
433.000000	65.351691
434.000000	95.381195
435.000000	13.555833
436.000000	95.297138
437.000000	33.698612
438.000000	38.136794
439.000000	56.936127
440.000000	79.843064
441.000000	5.535523
442.000000	57.527214
443.000000	39.044537
444.000000	65.715066
445.000000	16.151694
446.000000	75.763426
447.000000	65.389439
448.000000	40.836491
449.000000	17.869281
450.000000	17.964936
451.000000	74.308050
452.000000	18.873001
453.000000	29.543177
454.000000	2.507896
455.000000	58.756323
456.000000	11.885558
457.000000	54.292871
458.000000	92.352848
459.000000	65.004799
460.000000	95.353331
461.000000	96.932714
462.000000	39.057349
463.000000	75.331399
464.000000	5.773087
465.000000	47.812462
466.000000	7.083026
467.000000	97.179727
468.000000	40.102042
469.000000	83.497118
470.000000	24.792138
471.000000	0.558894
472.000000	99.779730
473.000000	43.267097
474.000000	12.508307
475.000000	79.863182
476.000000	29.830853
477.000000	81.712325
478.000000	98.492970
479.000000	16.135232
480.000000	70.247270
481.000000	11.889557
482.000000	74.109289
483.000000	3.335661
484.000000	57.401966
485.000000	46.200699
486.000000	25.902837
487.000000	98.817404
488.000000	88.141254
489.000000	77.186858
490.000000	41.955506
491.000000	31.678344
492.000000	6.670123
493.000000	43.113455
494.000000	86.812493
495.000000	20.506327
496.000000	54.644303
497.000000	14.563979
498.000000	16.712072
499.000000	90.939746
500.000000	12.999961
501.000000	79.973596
502.000000	13.902191
503.000000	11.552302
504.000000	77.536684
505.000000	97.989277
506.000000	67.728985
507.000000	49.202591
508.000000	21.678762
509.000000	6.184030
510.000000	93.194148
511.000000	8.255062
512.000000	54.518642
513.000000	84.546886
514.000000	30.433746
515.000000	80.113336
516.000000	98.826368
517.000000	42.498381
518.000000	38.940640
519.000000	24.502035
520.000000	23.632230
521.000000	14.258791
522.000000	4.307304
523.000000	97.631336
524.000000	66.358680
525.000000	19.132863
526.000000	83.254157
527.000000	92.781990
528.000000	55.990815
529.000000	17.311243
530.000000	13.843105
531.000000	37.039651
532.000000	64.841410
533.000000	51.396984
534.000000	85.384024
535.000000	0.743548
536.000000	1.179934
537.000000	13.302344
538.000000	89.936942
539.000000	44.877547
540.000000	26.425770
541.000000	17.180654
542.000000	22.991280
543.000000	82.199450
544.000000	84.677656
545.000000	59.859439
546.000000	50.235621
547.000000	48.756140
548.000000	30.135055
549.000000	89.693296
550.000000	57.576558
551.000000	44.172359
552.000000	95.666498
553.000000	84.524244
554.000000	66.172436
555.000000	25.714392
556.000000	15.874387
557.000000	51.479721
558.000000	64.289587
559.000000	45.713836
560.000000	1.802408
561.000000	21.313254
562.000000	31.621592
563.000000	90.798686
564.000000	93.441258
565.000000	17.968718
566.000000	23.884866
567.000000	28.282287
568.000000	87.370754
569.000000	26.979670
570.000000	68.114292
571.000000	97.549928
572.000000	48.326439
573.000000	2.809495
574.000000	89.157828
575.000000	11.922306
576.000000	98.357419
577.000000	15.946273
578.000000	75.507889
579.000000	25.957527
580.000000	13.558213
581.000000	75.698389
582.000000	51.931231
583.000000	34.434169
584.000000	27.674746
585.000000	97.579534
586.000000	94.398170
587.000000	92.136195
588.000000	43.288965
589.000000	64.129835
590.000000	62.816658
591.000000	85.109207
592.000000	99.601755
593.000000	46.270548
594.000000	12.437981
595.000000	92.318481
596.000000	63.873626
597.000000	8.590768
598.000000	81.051446
599.000000	66.129918
600.000000	12.937111
601.000000	59.809701
602.000000	47.526525
603.000000	27.763207
604.000000	15.931258
605.000000	54.625307
606.000000	45.051744
607.000000	99.956837
608.000000	68.429874
609.000000	15.425342
610.000000	91.609413
611.000000	58.882677
612.000000	74.516617
613.000000	49.033114
614.000000	48.723749
615.000000	76.006829
616.000000	76.993951
617.000000	20.338878
618.000000	54.156231
619.000000	48.210206
620.000000	43.483232
621.000000	31.016227
622.000000	33.248933
623.000000	51.861164
624.000000	15.732129
625.000000	1.445430
626.000000	81.900013
627.000000	92.393014
628.000000	70.303204
629.000000	8.371412
630.000000	22.360252
631.000000	44.252178
632.000000	7.740264
633.000000	35.674881
634.000000	67.899204
635.000000	89.210368
636.000000	45.123569
637.000000	71.285393
638.000000	49.488257
639.000000	41.403432
640.000000	49.324245
641.000000	74.059431
642.000000	86.378713
643.000000	66.929905
644.000000	39.486402
645.000000	49.495528
646.000000	65.697893
647.000000	44.637850
648.000000	67.368446
649.000000	33.153898
650.000000	46.811179
651.000000	12.479543
652.000000	47.848868
653.000000	84.073823
654.000000	45.327898
655.000000	82.491487
656.000000	44.701779
657.000000	16.911834
658.000000	83.137421
659.000000	95.054756
660.000000	27.452549
661.000000	18.151272
662.000000	98.816769
663.000000	69.605258
664.000000	90.615843
665.000000	70.285869
666.000000	30.108613
667.000000	66.010289
668.000000	34.400284
669.000000	60.382829
670.000000	99.199486
671.000000	84.134808
672.000000	44.960225
673.000000	88.000411
674.000000	51.097706
675.000000	64.958324
676.000000	5.590991
677.000000	67.041362
678.000000	56.183763
679.000000	1.033319
680.000000	69.252380
681.000000	44.328375
682.000000	17.042870
683.000000	40.461906
684.000000	70.866452
685.000000	84.826100
686.000000	14.964898
687.000000	56.616102
688.000000	87.349620
689.000000	21.600808
690.000000	70.992946
691.000000	47.827548
692.000000	95.304817
693.000000	32.869632
694.000000	87.692597
695.000000	95.718935
696.000000	8.721236
697.000000	8.989227
698.000000	68.780525
699.000000	61.508781
700.000000	85.171379
701.000000	94.431232
702.000000	5.448804
703.000000	2.499531
704.000000	40.201769
705.000000	95.960233
706.000000	2.484151
707.000000	3.054940
708.000000	56.447703
709.000000	27.853893
710.000000	3.682984
711.000000	62.502020
712.000000	63.765577
713.000000	76.120117
714.000000	6.406071
715.000000	11.209470
716.000000	27.213190
717.000000	54.356463
718.000000	87.951131
719.000000	1.272278
720.000000	90.879027
721.000000	88.307781
722.000000	50.380585
723.000000	81.238160
724.000000	27.797671
725.000000	25.918984
726.000000	77.648945
727.000000	35.492662
728.000000	44.924441
729.000000	87.979859
730.000000	99.811353
731.000000	37.729118
732.000000	16.752343
733.000000	79.086177
734.000000	19.156311
735.000000	12.197697
736.000000	77.345354
737.000000	92.724795
738.000000	53.478209
739.000000	95.416144
740.000000	16.741563
741.000000	76.366190
742.000000	6.703442
743.000000	30.921057
744.000000	26.408718
745.000000	68.312763
746.000000	42.477778
747.000000	3.233165
748.000000	68.597519
749.000000	61.996645
750.000000	48.791375
751.000000	1.489240
752.000000	94.198861
753.000000	9.113316
754.000000	21.851454
755.000000	44.135183
756.000000	32.366630
757.000000	20.186474
758.000000	72.857386
759.000000	21.573367
760.000000	48.395652
761.000000	10.796109
762.000000	74.412419
763.000000	15.218936
764.000000	77.335439
765.000000	8.714146
766.000000	38.756216
767.000000	49.079420
768.000000	83.387826
769.000000	64.313963
770.000000	7.923053
771.000000	78.186380
772.000000	71.819859
773.000000	62.113182
774.000000	8.894843
775.000000	40.417595
776.000000	53.001301
777.000000	48.003644
778.000000	36.238909
779.000000	40.868569
780.000000	55.042531
781.000000	58.059365
782.000000	22.517359
783.000000	25.229326
784.000000	20.509872
785.000000	50.693453
786.000000	78.303264
787.000000	20.660940
788.000000	73.895343
789.000000	39.583508
790.000000	87.510944
791.000000	21.669754
792.000000	3.312873
793.000000	6.427756
794.000000	23.148419
795.000000	15.564674
796.000000	98.425499
797.000000	47.223564
798.000000	38.045428
799.000000	5.843253
800.000000	83.842361
801.000000	92.120108
802.000000	38.351208
803.000000	71.231748
804.000000	21.682151
805.000000	6.329115
806.000000	34.883771
807.000000	13.755171
808.000000	9.058640
809.000000	65.697894
810.000000	68.423841
811.000000	10.636309
812.000000	79.122427
813.000000	94.250860
814.000000	44.431127
815.000000	17.802221
816.000000	16.350064
817.000000	54.852245
818.000000	94.894527
819.000000	6.365030
820.000000	45.819479
821.000000	82.937396
822.000000	76.163578
823.000000	67.257957
824.000000	80.224934
825.000000	90.516031
826.000000	19.787201
827.000000	83.679467
828.000000	28.689306
829.000000	85.293582
830.000000	52.029918
831.000000	45.965430
832.000000	35.036428
833.000000	63.242582
834.000000	64.839354
835.000000	35.962711
836.000000	50.494949
837.000000	47.794391
838.000000	96.209967
839.000000	2.337917
840.000000	35.300351
841.000000	7.910007
842.000000	17.354718
843.000000	88.571197
844.000000	99.362868
845.000000	16.698734
846.000000	82.444733
847.000000	61.926070
848.000000	90.361271
849.000000	37.865626
850.000000	79.682752
851.000000	96.261369
852.000000	97.316810
853.000000	31.004355
854.000000	74.311532
855.000000	99.014612
856.000000	54.232054
857.000000	93.883953
858.000000	39.507851
859.000000	18.602032
860.000000	57.148563
861.000000	45.079254
862.000000	41.452377
863.000000	22.060737
864.000000	4.257362
865.000000	12.748842
866.000000	44.763990
867.000000	88.278840
868.000000	21.619805
869.000000	34.490862
870.000000	91.387637
871.000000	62.565308
872.000000	80.788276
873.000000	30.625899
874.000000	45.087609
875.000000	76.069910
876.000000	69.398181
877.000000	44.189180
878.000000	14.463731
879.000000	39.113678
880.000000	43.449150
881.000000	91.085495
882.000000	33.524424
883.000000	82.133201
884.000000	24.598163
885.000000	89.320614
886.000000	9.764124
887.000000	27.032947
888.000000	82.697095
889.000000	51.584755
890.000000	22.840496
891.000000	84.581330
892.000000	14.645661
893.000000	64.347305
894.000000	98.010373
895.000000	94.952734
896.000000	46.108428
897.000000	96.382503
898.000000	89.712555
899.000000	42.773949
900.000000	46.176769
901.000000	35.709623
902.000000	57.586083
903.000000	16.195592
904.000000	87.679063
905.000000	89.670812
906.000000	24.701771
907.000000	89.917977
908.000000	87.236889
909.000000	10.035679
910.000000	35.440644
911.000000	64.916411
912.000000	72.494417
913.000000	29.250963
914.000000	3.903676
915.000000	31.951450
916.000000	39.899393
917.000000	59.140351
918.000000	12.117915
919.000000	66.412590
920.000000	80.909355
921.000000	21.150749
922.000000	27.017729
923.000000	85.583537
924.000000	44.689447
925.000000	93.233813
926.000000	87.187836
927.000000	93.531412
928.000000	82.284104
929.000000	17.499631
930.000000	54.915469
931.000000	78.790325
932.000000	81.968536
933.000000	46.351043
934.000000	10.788332
935.000000	88.276171
936.000000	83.081643
937.000000	51.535957
938.000000	34.077507
939.000000	81.374784
940.000000	42.424003
941.000000	2.543336
942.000000	61.547652
943.000000	80.227342
944.000000	56.734706
945.000000	25.581423
946.000000	62.552519
947.000000	33.545913
948.000000	15.669281
949.000000	21.847963
950.000000	72.349494
951.000000	97.552977
952.000000	92.866182
953.000000	60.579172
954.000000	56.696229
955.000000	81.726583
956.000000	1.608408
957.000000	18.460376
958.000000	63.771665
959.000000	40.032190
960.000000	78.018202
961.000000	94.990355
962.000000	69.447209
963.000000	15.062301
964.000000	52.394532
965.000000	8.137103
966.000000	26.546847
967.000000	69.783320
968.000000	98.589956
969.000000	39.221311
970.000000	3.998522
971.000000	1.205527
972.000000	85.180882
973.000000	14.566608
974.000000	19.552793
975.000000	34.285910
976.000000	99.562192
977.000000	95.825598
978.000000	85.545758
979.000000	14.904187
980.000000	23.453449
981.000000	20.005950
982.000000	10.676801
983.000000	97.853928
984.000000	59.209369
985.000000	63.101825
986.000000	59.187051
987.000000	58.045317
988.000000	20.854328
989.000000	67.911196
990.000000	62.819401
991.000000	92.874066
992.000000	96.162606
993.000000	50.801141
994.000000	29.086648
995.000000	22.282517
996.000000	27.593918
997.000000	92.934831
998.000000	56.803346
999.000000	3.583801
1000.000000	9.468976
1001.000000	83.491629
1002.000000	41.334363
1003.000000	9.936438
1004.000000	48.514453
1005.000000	10.750463
1006.000000	18.444926
1007.000000	17.692084
1008.000000	93.909627
1009.000000	57.363975
1010.000000	14.461625
1011.000000	28.749679
1012.000000	14.533135
1013.000000	78.431467
1014.000000	2.380210
1015.000000	14.343295
1016.000000	34.200236
1017.000000	68.872989
1018.000000	65.428597
1019.000000	35.167173
1020.000000	14.729808
1021.000000	21.556212
1022.000000	0.645571
1023.000000	4.951122
1024.000000	33.882904
1025.000000	38.998805
1026.000000	36.263729
1027.000000	24.757446
1028.000000	60.275449
1029.000000	43.265462
1030.000000	32.639050
1031.000000	66.999689
1032.000000	48.789668
1033.000000	37.755117
1034.000000	65.381587
1035.000000	77.583866
1036.000000	89.896722
1037.000000	56.114496
1038.000000	1.252478
1039.000000	71.675660
1040.000000	23.027003
1041.000000	22.073961
1042.000000	16.063261
1043.000000	6.637410
1044.000000	93.737575
1045.000000	88.127836
1046.000000	79.495880
1047.000000	55.341812
1048.000000	60.311890
1049.000000	23.114704
1050.000000	53.457909
1051.000000	19.179259
1052.000000	51.058000
1053.000000	33.187279
1054.000000	74.895460
1055.000000	7.925945
1056.000000	7.650490
1057.000000	41.049725
1058.000000	82.984182
1059.000000	62.411789
1060.000000	44.128300
1061.000000	79.007678
1062.000000	48.597992
1063.000000	83.592460
1064.000000	18.945237
1065.000000	26.866597
1066.000000	11.655422
1067.000000	32.471933
1068.000000	83.048641
1069.000000	78.892398
1070.000000	41.147131
1071.000000	34.294294
1072.000000	28.067335
1073.000000	33.401156
1074.000000	54.112129
1075.000000	38.807105
1076.000000	0.256579
1077.000000	2.271491
1078.000000	35.096930
1079.000000	52.423186
1080.000000	67.180201
1081.000000	50.222475
1082.000000	10.314349
1083.000000	65.451920
1084.000000	67.632180
1085.000000	81.876194
1086.000000	92.474474
1087.000000	0.181844
1088.000000	94.066062
1089.000000	72.839234
1090.000000	32.139721
1091.000000	57.181833
1092.000000	57.581958
1093.000000	25.992358
1094.000000	80.741882
1095.000000	10.885722
1096.000000	72.500646
1097.000000	15.993443
1098.000000	50.640982
1099.000000	33.643892
1100.000000	88.035686
