Dividing Wavelength (nm)	Power (W)	
900.000000	54.332367
899.000000	3.982377
898.000000	75.280206
897.000000	86.533370
896.000000	5.315354
895.000000	86.592101
894.000000	58.468303
893.000000	44.652605
892.000000	19.019728
891.000000	93.514604
890.000000	37.440423
889.000000	21.862959
888.000000	28.948889
887.000000	0.366635
886.000000	3.685370
885.000000	31.584699
884.000000	4.568229
883.000000	65.716539
882.000000	34.609723
881.000000	97.524337
880.000000	20.248240
879.000000	56.725489
878.000000	70.481592
877.000000	91.190859
876.000000	9.022869
875.000000	64.492145
874.000000	24.244111
873.000000	62.679019
872.000000	16.140472
871.000000	76.178904
870.000000	6.448405
869.000000	48.870051
868.000000	72.772377
867.000000	35.092951
866.000000	73.006126
865.000000	22.689692
864.000000	54.847663
863.000000	1.760561
862.000000	25.481182
861.000000	40.639114
860.000000	61.519280
859.000000	45.884960
858.000000	39.584677
857.000000	49.625277
856.000000	47.086611
855.000000	97.448181
854.000000	30.725245
853.000000	53.556246
852.000000	96.165633
851.000000	26.760939
850.000000	60.404576
849.000000	75.383750
848.000000	27.643709
847.000000	62.380373
846.000000	5.157654
845.000000	64.951376
844.000000	38.573545
843.000000	97.690202
842.000000	46.885941
841.000000	42.115619
840.000000	92.304361
839.000000	68.020293
838.000000	52.231173
837.000000	15.579808
836.000000	55.859269
835.000000	16.190589
834.000000	82.609913
833.000000	85.310432
832.000000	48.233278
831.000000	12.130373
830.000000	75.400383
829.000000	0.829066
828.000000	4.533197
827.000000	27.354696
826.000000	34.933640
825.000000	76.444264
824.000000	41.017495
823.000000	96.504494
822.000000	46.790677
821.000000	50.616045
820.000000	25.981473
819.000000	45.118768
818.000000	47.352114
817.000000	86.461912
816.000000	75.359991
815.000000	10.068575
814.000000	55.347402
813.000000	28.894650
812.000000	16.545177
811.000000	12.871055
810.000000	31.827319
809.000000	1.847708
808.000000	80.004353
807.000000	27.961654
806.000000	17.029763
805.000000	49.930763
804.000000	16.160803
803.000000	61.775123
802.000000	43.300003
801.000000	34.989220
800.000000	72.191253
799.000000	54.906937
798.000000	8.199756
797.000000	11.325560
796.000000	92.875945
795.000000	50.173524
794.000000	30.034709
793.000000	26.120837
792.000000	23.213777
791.000000	81.024720
790.000000	38.886634
789.000000	10.447971
788.000000	85.387431
787.000000	11.641202
786.000000	91.147864
785.000000	38.193162
784.000000	95.657830
783.000000	55.440615
782.000000	80.433654
781.000000	79.470444
780.000000	60.927972
779.000000	39.532128
778.000000	54.232952
777.000000	83.410798
776.000000	87.680432
775.000000	48.382492
774.000000	45.074833
773.000000	80.179069
772.000000	73.029815
771.000000	63.487659
770.000000	1.528099
769.000000	13.732737
768.000000	32.274768
767.000000	48.482420
766.000000	97.790719
765.000000	20.951848
764.000000	88.031338
763.000000	30.912230
762.000000	51.987135
761.000000	95.650446
760.000000	38.110400
759.000000	58.436512
758.000000	15.790364
757.000000	57.609065
756.000000	89.340292
755.000000	99.822456
754.000000	27.608671
753.000000	73.674410
752.000000	81.380710
751.000000	38.632829
750.000000	38.803192
749.000000	64.308309
748.000000	86.202137
747.000000	82.464080
746.000000	98.261197
745.000000	26.858413
744.000000	8.714976
743.000000	14.764202
742.000000	16.970814
741.000000	89.229870
740.000000	60.191308
739.000000	2.100230
738.000000	95.627140
737.000000	70.362369
736.000000	24.349483
735.000000	90.636319
734.000000	70.040022
733.000000	22.282068
732.000000	0.218321
731.000000	97.839555
730.000000	72.335719
729.000000	39.105326
728.000000	14.550758
727.000000	57.120541
726.000000	74.205812
725.000000	13.855593
724.000000	13.882132
723.000000	10.688876
722.000000	32.440322
721.000000	8.462711
720.000000	18.812221
719.000000	93.384344
718.000000	53.308345
717.000000	43.452322
716.000000	32.927530
715.000000	25.403856
714.000000	10.192772
713.000000	18.735620
712.000000	75.556192
711.000000	99.915782
710.000000	63.636254
709.000000	14.775427
708.000000	86.316173
707.000000	66.219438
706.000000	70.298321
705.000000	77.651974
704.000000	65.811593
703.000000	89.463999
702.000000	48.475223
701.000000	3.367045
700.000000	57.449087
699.000000	62.184076
698.000000	10.837338
697.000000	78.948394
696.000000	96.429388
695.000000	78.884171
694.000000	16.957873
693.000000	20.979060
692.000000	91.665798
691.000000	42.722017
690.000000	48.533427
689.000000	92.030203
688.000000	53.701854
687.000000	51.532521
686.000000	96.617611
685.000000	46.818146
684.000000	96.314851
683.000000	47.334677
682.000000	53.840377
681.000000	37.156014
680.000000	53.269722
679.000000	65.797982
678.000000	82.800435
677.000000	86.612737
676.000000	52.638705
675.000000	47.515672
674.000000	53.921760
673.000000	24.131085
672.000000	15.123298
671.000000	89.586201
670.000000	2.062366
669.000000	71.263462
668.000000	32.182670
667.000000	48.001560
666.000000	57.016816
665.000000	93.323640
664.000000	66.337588
663.000000	57.658670
662.000000	44.888930
661.000000	85.529326
660.000000	87.146587
659.000000	49.942501
658.000000	97.480035
657.000000	72.747213
656.000000	76.833611
655.000000	60.866800
654.000000	0.949990
653.000000	59.330901
652.000000	36.845036
651.000000	65.762840
650.000000	93.436779
649.000000	40.894245
648.000000	45.922550
647.000000	66.825321
646.000000	21.734365
645.000000	85.703655
644.000000	62.502336
643.000000	62.911409
642.000000	46.146324
641.000000	36.061035
640.000000	15.103182
639.000000	68.857379
638.000000	61.232515
637.000000	20.906947
636.000000	38.352713
635.000000	97.745271
634.000000	40.198798
633.000000	7.954137
632.000000	27.997490
631.000000	9.495760
630.000000	79.888141
629.000000	65.407547
628.000000	84.209386
627.000000	19.156142
626.000000	63.459975
625.000000	38.246263
624.000000	58.449627
623.000000	60.603059
622.000000	14.054557
621.000000	60.714461
620.000000	74.215040
619.000000	24.999284
618.000000	66.009957
617.000000	43.639807
616.000000	81.828398
615.000000	33.763706
614.000000	50.058093
613.000000	24.858201
612.000000	37.829042
611.000000	62.431529
610.000000	88.265857
609.000000	84.413273
608.000000	87.596489
607.000000	51.620495
606.000000	82.714662
605.000000	30.558682
604.000000	22.079051
603.000000	77.922480
602.000000	86.148271
601.000000	15.304758
600.000000	67.188584
599.000000	5.140594
598.000000	20.536472
597.000000	97.179336
596.000000	27.600285
595.000000	73.950453
594.000000	50.717661
593.000000	65.358597
592.000000	97.257932
591.000000	40.351445
590.000000	39.130164
589.000000	14.037682
588.000000	66.446374
587.000000	57.961241
586.000000	96.916142
585.000000	71.456330
584.000000	0.886561
583.000000	49.594322
582.000000	79.686769
581.000000	7.085651
580.000000	46.098291
579.000000	13.235134
578.000000	92.261537
577.000000	14.847079
576.000000	50.287566
575.000000	56.766551
574.000000	83.857765
573.000000	82.721546
572.000000	89.634755
571.000000	62.947868
570.000000	92.845181
569.000000	76.218599
568.000000	90.961710
567.000000	35.641284
566.000000	82.941771
565.000000	13.651509
564.000000	31.102841
563.000000	91.585862
562.000000	68.804045
561.000000	50.292606
560.000000	43.351946
559.000000	49.388774
558.000000	59.964883
557.000000	43.177997
556.000000	56.247545
555.000000	10.746791
554.000000	79.691942
553.000000	26.011070
552.000000	93.140468
551.000000	36.806558
550.000000	2.413748
549.000000	57.757109
548.000000	55.084140
547.000000	27.902649
546.000000	80.105181
545.000000	22.544028
544.000000	39.078336
543.000000	50.247903
542.000000	88.203555
541.000000	47.398939
540.000000	47.763473
539.000000	73.634179
538.000000	59.357927
537.000000	87.525735
536.000000	44.177844
535.000000	38.407272
534.000000	10.348534
533.000000	35.027096
532.000000	70.917046
531.000000	15.788318
530.000000	93.039339
529.000000	13.012729
528.000000	0.486621
527.000000	63.825035
526.000000	20.940263
525.000000	8.838455
524.000000	38.595715
523.000000	25.918918
522.000000	31.643922
521.000000	91.411385
520.000000	52.166348
519.000000	48.751937
518.000000	53.137780
517.000000	69.028452
516.000000	95.732298
515.000000	23.245906
514.000000	15.964740
513.000000	30.695753
512.000000	46.232463
511.000000	61.965283
510.000000	74.735093
509.000000	86.972725
508.000000	96.279205
507.000000	25.749823
506.000000	6.650869
505.000000	63.280377
504.000000	81.062680
503.000000	14.689527
502.000000	72.984856
501.000000	88.533629
500.000000	60.651464
499.000000	64.584321
498.000000	49.816210
497.000000	36.673963
496.000000	24.471746
495.000000	84.727579
494.000000	34.710696
493.000000	42.156997
492.000000	20.370869
491.000000	24.579957
490.000000	5.328999
489.000000	88.837845
488.000000	70.696648
487.000000	42.630177
486.000000	95.598370
485.000000	5.940375
484.000000	57.111037
483.000000	69.048196
482.000000	42.194483
481.000000	67.441089
480.000000	52.325308
479.000000	80.477467
478.000000	46.977148
477.000000	85.668709
476.000000	71.866644
475.000000	54.336314
474.000000	58.515264
473.000000	23.419380
472.000000	80.674559
471.000000	52.568381
470.000000	71.847490
469.000000	77.820320
468.000000	26.070470
467.000000	46.187477
466.000000	53.797739
465.000000	35.105542
464.000000	95.152984
463.000000	30.465653
462.000000	31.031154
461.000000	38.360970
460.000000	49.962952
459.000000	41.010344
458.000000	75.166607
457.000000	9.530602
456.000000	85.120981
455.000000	63.160872
454.000000	9.569648
453.000000	19.591332
452.000000	67.676587
451.000000	49.835113
450.000000	82.398439
449.000000	78.387598
448.000000	12.932843
447.000000	7.680518
446.000000	72.802485
445.000000	29.676418
444.000000	42.405344
443.000000	18.535566
442.000000	5.150341
441.000000	83.188551
440.000000	47.705128
439.000000	19.295468
438.000000	90.505222
437.000000	42.123756
436.000000	21.901505
435.000000	84.474831
434.000000	57.133590
433.000000	9.577312
432.000000	72.171071
431.000000	16.679835
430.000000	7.994041
429.000000	52.484036
428.000000	11.272490
427.000000	3.260235
426.000000	4.788627
425.000000	61.587457
424.000000	29.871662
423.000000	74.151632
422.000000	87.874568
421.000000	56.273846
420.000000	61.127050
419.000000	57.417611
418.000000	50.819921
417.000000	77.393829
416.000000	28.794737
415.000000	68.801281
414.000000	3.382038
413.000000	85.386746
412.000000	79.522677
411.000000	23.693619
410.000000	11.712600
409.000000	24.059334
408.000000	30.168474
407.000000	13.331226
406.000000	32.629153
405.000000	75.604835
404.000000	52.500671
403.000000	94.473865
402.000000	98.645203
401.000000	22.457441
400.000000	68.696868
