Dividing Wavelength (nm)	Blue Motor Position (mm)	Red Motor Position (mm)	
355.000000	50.000000	3.036400
355.100000	49.996733	3.046507
355.200000	49.993149	3.056614
355.300000	49.989255	3.066720
355.400000	49.985054	3.076827
355.500000	49.980553	3.086934
355.600000	49.975756	3.097041
355.700000	49.970669	3.107148
355.800000	49.965298	3.117254
355.900000	49.959647	3.127361
356.000000	49.953722	3.137468
356.100000	49.947527	3.147575
356.200000	49.941070	3.157682
356.300000	49.934354	3.167788
356.400000	49.927385	3.177895
356.500000	49.920168	3.188002
356.600000	49.912709	3.198109
356.700000	49.905013	3.208216
356.800000	49.897085	3.218322
356.900000	49.888930	3.228429
357.000000	49.880554	3.238536
357.100000	49.871962	3.248643
357.200000	49.863160	3.258750
357.300000	49.854152	3.268856
357.400000	49.844944	3.278963
357.500000	49.835541	3.289070
357.600000	49.825949	3.299177
357.700000	49.816172	3.309284
357.800000	49.806217	3.319390
357.900000	49.796088	3.329497
358.000000	49.785790	3.339604
358.100000	49.775330	3.349711
358.200000	49.764712	3.359818
358.300000	49.753941	3.369924
358.400000	49.743023	3.380031
358.500000	49.731964	3.390138
358.600000	49.720768	3.400245
358.700000	49.709440	3.410352
358.800000	49.697987	3.420458
358.900000	49.686412	3.430565
359.000000	49.674723	3.440672
359.100000	49.662923	3.450779
359.200000	49.651019	3.460886
359.300000	49.639015	3.470992
359.400000	49.626916	3.481099
359.500000	49.614729	3.491206
359.600000	49.602458	3.501313
359.700000	49.590109	3.511420
359.800000	49.577687	3.521526
359.900000	49.565197	3.531633
360.000000	49.552645	3.541740
360.100000	49.540035	3.551847
360.200000	49.527373	3.561954
360.300000	49.514665	3.572060
360.400000	49.501916	3.582167
360.500000	49.488837	3.592274
360.600000	49.474950	3.602381
360.700000	49.460295	3.612488
360.800000	49.444919	3.622594
360.900000	49.428873	3.632701
361.000000	49.412205	3.642808
361.100000	49.394964	3.652915
361.200000	49.377199	3.663022
361.300000	49.358958	3.673128
361.400000	49.340291	3.683235
361.500000	49.321246	3.693342
361.600000	49.301873	3.703449
361.700000	49.282220	3.713556
361.800000	49.262336	3.723662
361.900000	49.242271	3.733769
362.000000	49.222072	3.743876
362.100000	49.201789	3.753983
362.200000	49.181470	3.764090
362.300000	49.161166	3.774196
362.400000	49.140923	3.784303
362.500000	49.120792	3.794410
362.600000	49.100822	3.804517
362.700000	49.081060	3.814624
362.800000	49.061556	3.824730
362.900000	49.042360	3.834837
363.000000	49.023519	3.844944
363.100000	49.005083	3.855051
363.200000	48.986950	3.865158
363.300000	48.968746	3.875264
363.400000	48.950462	3.885371
363.500000	48.932111	3.895478
363.600000	48.913706	3.905585
363.700000	48.895263	3.915692
363.800000	48.876793	3.925798
363.900000	48.858310	3.935905
364.000000	48.839829	3.946012
364.100000	48.821362	3.955396
364.200000	48.802924	3.963654
364.300000	48.784527	3.971271
364.400000	48.766186	3.978726
364.500000	48.747913	3.986503
364.600000	48.729723	3.995084
364.700000	48.711628	4.004949
364.800000	48.693643	4.016582
364.900000	48.675781	4.030465
365.000000	48.658055	4.047080
365.100000	48.640480	4.083718
365.200000	48.623068	4.131077
365.300000	48.605833	4.154306
365.400000	48.588790	4.168103
365.500000	48.571950	4.180119
365.600000	48.555328	4.190563
365.700000	48.538938	4.199643
365.800000	48.522792	4.207570
365.900000	48.506905	4.214550
366.000000	48.491291	4.220794
366.100000	48.475959	4.226510
366.200000	48.460894	4.231907
366.300000	48.446080	4.237195
366.400000	48.431501	4.242581
366.500000	48.417141	4.248274
366.600000	48.402985	4.254026
366.700000	48.389016	4.259150
366.800000	48.375218	4.263710
366.900000	48.361575	4.267788
367.000000	48.348071	4.271461
367.100000	48.334691	4.274808
367.200000	48.321418	4.277911
367.300000	48.308236	4.280848
367.400000	48.295129	4.283699
367.500000	48.282082	4.286542
367.600000	48.269078	4.289459
367.700000	48.256101	4.292527
367.800000	48.243136	4.295827
367.900000	48.230166	4.299438
368.000000	48.217175	4.303439
368.100000	48.204147	4.307910
368.200000	48.191067	4.312930
368.300000	48.177918	4.318580
368.400000	48.164685	4.324937
368.500000	48.151351	4.332083
368.600000	48.137900	4.340095
368.700000	48.124316	4.349055
368.800000	48.110584	4.368876
368.900000	48.096687	4.404796
369.000000	48.082610	4.438783
369.100000	48.068336	4.454361
369.200000	48.053849	4.462668
369.300000	48.039134	4.469884
369.400000	48.024174	4.476113
369.500000	48.008954	4.481460
369.600000	47.993479	4.486032
369.700000	47.977922	4.489934
369.800000	47.962314	4.493270
369.900000	47.946645	4.496146
370.000000	47.930904	4.498668
370.100000	47.915080	4.500940
370.200000	47.899162	4.503070
370.300000	47.883140	4.505160
370.400000	47.867002	4.507317
370.500000	47.850739	4.509647
370.600000	47.834339	4.512254
370.700000	47.817792	4.515244
370.800000	47.801087	4.518722
370.900000	47.784213	4.522795
371.000000	47.767159	4.527565
371.100000	47.749916	4.533141
371.200000	47.732471	4.539626
371.300000	47.714814	4.547126
371.400000	47.696936	4.556818
371.500000	47.678823	4.577850
371.600000	47.660467	4.606176
371.700000	47.641857	4.634130
371.800000	47.622981	4.654059
371.900000	47.603829	4.666970
372.000000	47.584390	4.678130
372.100000	47.564653	4.687864
372.200000	47.544609	4.696502
372.300000	47.524245	4.704366
372.400000	47.503551	4.711786
372.500000	47.482217	4.719087
372.600000	47.459748	4.726598
372.700000	47.436252	4.734643
372.800000	47.411852	4.743549
372.900000	47.386670	4.753643
373.000000	47.360828	4.765142
373.100000	47.334449	4.777811
373.200000	47.307655	4.791312
373.300000	47.280568	4.805311
373.400000	47.253311	4.819470
373.500000	47.226005	4.833452
373.600000	47.198774	4.846919
373.700000	47.171738	4.859487
373.800000	47.145022	4.870422
373.900000	47.118746	4.880105
374.000000	47.093034	4.889216
374.100000	47.068007	4.898435
374.200000	47.043788	4.908445
374.300000	47.020499	4.919924
374.400000	46.998261	4.933556
374.500000	46.976912	4.950018
374.600000	46.956233	4.975615
374.700000	46.936168	5.018641
374.800000	46.916658	5.055096
374.900000	46.897645	5.074178
375.000000	46.879071	5.089704
375.100000	46.860877	5.102673
375.200000	46.843006	5.113869
375.300000	46.825399	5.124076
375.400000	46.807998	5.134076
375.500000	46.790746	5.144655
375.600000	46.773583	5.156593
375.700000	46.756451	5.169938
375.800000	46.739293	5.183624
375.900000	46.722050	5.197557
376.000000	46.704665	5.211673
376.100000	46.687078	5.225908
376.200000	46.669233	5.240196
376.300000	46.651070	5.254473
376.400000	46.632531	5.268765
376.500000	46.613559	5.283324
376.600000	46.594095	5.298042
376.700000	46.574081	5.312779
376.800000	46.553459	5.327389
376.900000	46.532170	5.341731
377.000000	46.510158	5.355660
377.100000	46.487349	5.369153
377.200000	46.463672	5.382554
377.300000	46.439170	5.395826
377.400000	46.413904	5.408885
377.500000	46.387930	5.421646
377.600000	46.361308	5.434023
377.700000	46.334096	5.445932
377.800000	46.306353	5.457287
377.900000	46.278135	5.467862
378.000000	46.249503	5.477099
378.100000	46.220514	5.485282
378.200000	46.191227	5.492789
378.300000	46.161700	5.500004
378.400000	46.131991	5.507306
378.500000	46.102159	5.515077
378.600000	46.072262	5.523697
378.700000	46.042359	5.533548
378.800000	46.012508	5.545010
378.900000	45.982549	5.558465
379.000000	45.951628	5.577383
379.100000	45.919802	5.607161
379.200000	45.887244	5.640009
379.300000	45.854129	5.667455
379.400000	45.820631	5.688330
379.500000	45.786925	5.706505
379.600000	45.753185	5.724171
379.700000	45.719585	5.743515
379.800000	45.686300	5.766744
379.900000	45.653504	5.799243
380.000000	45.621371	5.836479
380.100000	45.590076	5.867448
380.200000	45.559793	5.890926
380.300000	45.530696	5.911968
380.400000	45.502960	5.930874
380.500000	45.476543	5.947950
380.600000	45.451129	5.963498
380.700000	45.426618	5.977654
380.800000	45.402911	5.990317
380.900000	45.379908	6.001828
381.000000	45.357511	6.012546
381.100000	45.335622	6.022834
381.200000	45.314142	6.033052
381.300000	45.292972	6.043563
381.400000	45.272013	6.054727
381.500000	45.251167	6.066906
381.600000	45.230335	6.079205
381.700000	45.209418	6.090485
381.800000	45.188318	6.101865
381.900000	45.166935	6.114488
382.000000	45.145172	6.129494
382.100000	45.122929	6.148028
382.200000	45.100108	6.171399
382.300000	45.076610	6.226277
382.400000	45.052336	6.272161
382.500000	45.027188	6.289496
382.600000	45.001066	6.303225
382.700000	44.973642	6.314088
382.800000	44.944739	6.322822
382.900000	44.914556	6.330168
383.000000	44.883297	6.336864
383.100000	44.851162	6.343652
383.200000	44.818352	6.351270
383.300000	44.785070	6.360457
383.400000	44.751517	6.371952
383.500000	44.717894	6.386156
383.600000	44.684402	6.402448
383.700000	44.651244	6.420024
383.800000	44.618620	6.438086
383.900000	44.586732	6.455832
384.000000	44.555781	6.472459
384.100000	44.525969	6.487353
384.200000	44.497495	6.500957
384.300000	44.470110	6.514075
384.400000	44.443490	6.527510
384.500000	44.417555	6.542063
384.600000	44.392224	6.558537
384.700000	44.367413	6.577825
384.800000	44.343043	6.602939
384.900000	44.319031	6.632614
385.000000	44.295297	6.663559
385.100000	44.271758	6.694474
385.200000	44.248334	6.728295
385.300000	44.224942	6.759580
385.400000	44.201501	6.782651
385.500000	44.177930	6.800528
385.600000	44.154148	6.815775
385.700000	44.130072	6.829301
385.800000	44.105622	6.842013
385.900000	44.080716	6.854821
386.000000	44.055272	6.868632
386.100000	44.029209	6.884159
386.200000	44.002446	6.900512
386.300000	43.974719	6.917341
386.400000	43.945848	6.934539
386.500000	43.916006	6.951995
386.600000	43.885369	6.969599
386.700000	43.854111	6.987034
386.800000	43.822407	7.003494
386.900000	43.790433	7.019837
387.000000	43.758365	7.037136
387.100000	43.726376	7.056474
387.200000	43.694643	7.078925
387.300000	43.663341	7.110042
387.400000	43.632645	7.147418
387.500000	43.602729	7.179874
387.600000	43.573770	7.204553
387.700000	43.545942	7.226691
387.800000	43.519421	7.246781
387.900000	43.494377	7.265313
388.000000	43.470805	7.282756
388.100000	43.448549	7.296443
388.200000	43.427468	7.306122
388.300000	43.407421	7.314379
388.400000	43.388267	7.323800
388.500000	43.369864	7.336973
388.600000	43.352071	7.356485
388.700000	43.334747	7.386975
388.800000	43.317750	7.490772
388.900000	43.300939	7.511368
389.000000	43.284174	7.525380
389.100000	43.267312	7.534611
389.200000	43.250212	7.540864
389.300000	43.232734	7.545939
389.400000	43.214736	7.551638
389.500000	43.196076	7.559763
389.600000	43.176613	7.572116
389.700000	43.156207	7.591928
389.800000	43.134715	7.635342
389.900000	43.111997	7.680321
390.000000	43.087911	7.707221
390.100000	43.062316	7.728404
390.200000	43.035071	7.746955
390.300000	43.006035	7.765583
390.400000	42.972274	7.786994
390.500000	42.928716	7.801550
390.600000	42.876559	7.812687
390.700000	42.817185	7.841220
390.800000	42.751977	7.992652
390.900000	42.682319	8.008157
391.000000	42.609594	8.020668
391.100000	42.535184	8.030546
391.200000	42.460473	8.038147
391.300000	42.386844	8.043832
391.400000	42.315679	8.047961
391.500000	42.248362	8.050891
391.600000	42.186276	8.052983
391.700000	42.130803	8.054595
391.800000	42.083327	8.056087
391.900000	42.045231	8.057817
392.000000	42.017898	8.060146
392.100000	42.002710	8.063431
392.200000	42.000638	8.068034
392.300000	42.008101	8.074311
392.400000	42.023172	8.082623
392.500000	42.044870	8.093736
392.600000	42.072218	8.113276
392.700000	42.104235	8.140525
392.800000	42.139943	8.172349
392.900000	42.178364	8.208746
393.000000	42.218517	8.259028
393.100000	42.259424	8.294526
393.200000	42.300106	8.311690
393.300000	42.339584	8.323154
393.400000	42.376878	8.331120
393.500000	42.411011	8.337790
393.600000	42.441002	8.345362
393.700000	42.465872	8.356038
393.800000	42.484643	8.372021
393.900000	42.496336	8.396578
394.000000	42.499670	8.490931
394.100000	42.444490	8.533313
394.200000	42.311087	8.563564
394.300000	42.123015	8.586189
394.400000	41.903826	8.604766
394.500000	41.677074	8.619410
394.600000	41.462775	8.631123
394.700000	41.183918	8.641206
394.800000	40.998218	8.650964
394.900000	40.942213	8.661703
395.000000	40.892446	8.674727
395.100000	40.848404	8.691341
395.200000	40.809576	8.716479
395.300000	40.775449	8.753357
395.400000	40.745511	8.790174
395.500000	40.719250	8.820015
395.600000	40.696154	8.848461
395.700000	40.675712	8.874261
395.800000	40.657409	8.895783
395.900000	40.640735	8.912545
396.000000	40.625178	8.926340
396.100000	40.610225	8.938160
396.200000	40.595364	8.948978
396.300000	40.580083	8.959766
396.400000	40.563870	8.971496
396.500000	40.546213	8.985140
396.600000	40.526599	9.001685
396.700000	40.504517	9.022766
396.800000	40.480597	9.047889
396.900000	40.456877	9.075485
397.000000	40.433402	9.104038
397.100000	40.410156	9.135935
397.200000	40.387123	9.169908
397.300000	40.364289	9.201404
397.400000	40.341637	9.229086
397.500000	40.319153	9.255038
397.600000	40.296820	9.279775
397.700000	40.274624	9.303807
397.800000	40.252549	9.326648
397.900000	40.230580	9.348325
398.000000	40.208701	9.369832
398.100000	40.186897	9.392163
398.200000	40.165152	9.416474
398.300000	40.143451	9.443398
398.400000	40.121779	9.470842
398.500000	40.100120	9.496430
398.600000	40.078458	9.518091
398.700000	40.056779	9.536438
398.800000	40.035066	9.553345
398.900000	40.013305	9.570684
399.000000	39.991463	9.590321
399.100000	39.969389	9.614617
399.200000	39.947080	9.648483
399.300000	39.924581	9.684519
399.400000	39.901933	9.712552
399.500000	39.879178	9.731835
399.600000	39.856360	9.747052
399.700000	39.833522	9.761648
399.800000	39.810705	9.779061
399.900000	39.787952	9.802735
400.000000	39.765306	9.849530
400.100000	39.742810	9.905590
400.200000	39.720505	9.931767
400.300000	39.698435	9.951064
400.400000	39.676642	9.966450
400.500000	39.655169	9.980554
400.600000	39.634058	9.996010
400.700000	39.613351	10.015299
400.800000	39.593093	10.037132
400.900000	39.573324	10.060599
401.000000	39.554088	10.085921
401.100000	39.535427	10.113347
401.200000	39.517383	10.146760
401.300000	39.500000	10.182978
401.400000	39.483456	10.213614
401.500000	39.467857	10.237389
401.600000	39.453132	10.258318
401.700000	39.439214	10.277463
401.800000	39.426032	10.295890
401.900000	39.413517	10.314648
402.000000	39.401602	10.331742
402.100000	39.390215	10.346732
402.200000	39.379289	10.361851
402.300000	39.368754	10.379330
402.400000	39.358540	10.401399
402.500000	39.348580	10.433933
402.600000	39.338803	10.487354
402.700000	39.329141	10.540661
402.800000	39.319524	10.594140
402.900000	39.309883	10.631308
403.000000	39.300150	10.658634
403.100000	39.290254	10.681419
403.200000	39.280127	10.702137
403.300000	39.269700	10.723138
403.400000	39.258904	10.743832
403.500000	39.247669	10.763608
403.600000	39.235926	10.782608
403.700000	39.223607	10.800974
403.800000	39.210641	10.818848
403.900000	39.196961	10.834428
404.000000	39.182496	10.847328
404.100000	39.167178	10.859651
404.200000	39.150937	10.873501
404.300000	39.133705	10.890979
404.400000	39.115412	10.914189
404.500000	39.095989	10.964955
404.600000	39.075367	11.022323
404.700000	39.053477	11.045675
404.800000	39.030249	11.061966
404.900000	39.005615	11.074318
405.000000	38.974458	11.085854
405.100000	38.927704	11.099696
405.200000	38.868906	11.118967
405.300000	38.802050	11.151869
405.400000	38.731119	11.195142
405.500000	38.660101	11.228074
405.600000	38.592981	11.250621
405.700000	38.533744	11.269514
405.800000	38.485703	11.286339
405.900000	38.442217	11.302684
406.000000	38.400462	11.320136
406.100000	38.360339	11.339300
406.200000	38.321750	11.358789
406.300000	38.284596	11.378441
406.400000	38.248780	11.398141
406.500000	38.214202	11.417778
406.600000	38.180765	11.436820
406.700000	38.148369	11.454326
406.800000	38.116917	11.471645
406.900000	38.086311	11.490315
407.000000	38.056451	11.511868
407.100000	38.027240	11.537345
407.200000	37.998579	11.567068
407.300000	37.970653	11.609602
407.400000	37.943617	11.706078
407.500000	37.917401	11.769670
407.600000	37.891937	11.818778
407.700000	37.867155	11.860273
407.800000	37.842987	11.893104
407.900000	37.819365	11.916219
408.000000	37.796218	11.928565
408.100000	37.773479	11.897013
408.200000	37.751078	11.830972
408.300000	37.728947	11.860404
408.400000	37.707016	11.913299
408.500000	37.685217	11.972188
408.600000	37.663480	12.019595
408.700000	37.641738	12.044256
408.800000	37.619920	12.062278
408.900000	37.597959	12.077154
409.000000	37.575784	12.090097
409.100000	37.553328	12.102317
409.200000	37.530522	12.115027
409.300000	37.507296	12.129440
409.400000	37.483568	12.143477
409.500000	37.459299	12.153466
409.600000	37.434568	12.163623
409.700000	37.409458	12.178365
409.800000	37.384053	12.202115
409.900000	37.358435	12.253794
410.000000	37.332689	12.355734
410.100000	37.306898	12.378751
410.200000	37.281144	12.393324
410.300000	37.255512	12.402651
410.400000	37.230085	12.409931
410.500000	37.204946	12.418364
410.600000	37.180178	12.431148
410.700000	37.155866	12.449741
410.800000	37.132092	12.471016
410.900000	37.108939	12.494380
411.000000	37.086492	12.519428
411.100000	37.064833	12.546122
411.200000	37.044047	12.577398
411.300000	37.024215	12.610096
411.400000	37.005423	12.639297
411.500000	36.987630	12.663330
411.600000	36.970507	12.684807
411.700000	36.953997	12.705802
411.800000	36.938062	12.728390
411.900000	36.922664	12.754871
412.000000	36.907768	12.785708
412.100000	36.893335	12.816945
412.200000	36.879328	12.844374
412.300000	36.865710	12.867387
412.400000	36.852444	12.888240
412.500000	36.839492	12.908666
412.600000	36.826817	12.930397
412.700000	36.814383	12.955276
412.800000	36.802152	12.983658
412.900000	36.790086	13.012730
413.000000	36.778148	13.039445
413.100000	36.766301	13.061387
413.200000	36.754509	13.079986
413.300000	36.742733	13.098095
413.400000	36.730936	13.118574
413.500000	36.719082	13.144289
413.600000	36.707133	13.183306
413.700000	36.695051	13.229202
413.800000	36.682800	13.269649
413.900000	36.670343	13.309003
414.000000	36.657641	13.340828
414.100000	36.644658	13.360728
414.200000	36.631357	13.373677
414.300000	36.617700	13.383047
414.400000	36.603650	13.392085
414.500000	36.589170	13.404041
414.600000	36.574223	13.422165
414.700000	36.558771	13.451486
414.800000	36.542777	13.551922
414.900000	36.526205	13.588041
415.000000	36.509016	13.612679
415.100000	36.491261	13.631208
415.200000	36.473434	13.648997
415.300000	36.455545	13.666213
415.400000	36.437506	13.680684
415.500000	36.419229	13.693673
415.600000	36.400627	13.706440
415.700000	36.381613	13.720246
415.800000	36.362098	13.736352
415.900000	36.341995	13.756166
416.000000	36.321216	13.782095
416.100000	36.299674	13.812474
416.200000	36.277282	13.844530
416.300000	36.253951	13.876700
416.400000	36.229594	13.910821
416.500000	36.204124	13.948146
416.600000	36.177453	13.997632
416.700000	36.149493	14.059792
416.800000	36.120157	14.116806
416.900000	36.089356	14.150754
417.000000	36.057005	14.075931
417.100000	36.023014	14.178759
417.200000	35.986360	14.254927
417.300000	35.936666	14.273359
417.400000	35.873167	14.286606
417.500000	35.798525	14.295950
417.600000	35.715402	14.302678
417.700000	35.626460	14.308074
417.800000	35.534358	14.313424
417.900000	35.441758	14.320012
418.000000	35.351322	14.329121
418.100000	35.265711	14.342038
418.200000	35.187586	14.361340
418.300000	35.119608	14.422938
418.400000	35.064439	14.516431
418.500000	35.024740	14.606258
418.600000	35.003171	14.656862
418.700000	35.006887	14.492818
418.800000	35.062061	14.649410
418.900000	35.155425	14.761509
419.000000	35.266392	14.790065
419.100000	35.374374	14.810308
419.200000	35.458783	14.825202
419.300000	35.499031	14.837712
419.400000	35.499444	14.850802
419.500000	35.497321	14.867262
419.600000	35.493647	14.886669
419.700000	35.488460	14.907874
419.800000	35.481800	14.930166
419.900000	35.473707	14.952839
420.000000	35.464221	14.975183
420.100000	35.453380	14.996490
420.200000	35.441224	15.016053
420.300000	35.427793	15.033160
420.400000	35.413126	15.047107
420.500000	35.397262	15.057182
420.600000	35.380241	15.062677
