Dividing Wavelength (nm)	Blue Motor Position (mm)	Red Motor Position (mm)	
334.000000	50.000000	3.036400
334.100000	49.990000	3.046507
334.200000	49.980000	3.056614
334.300000	49.970000	3.066720
334.400000	49.960000	3.076827
334.500000	49.950000	3.086934
334.600000	49.940000	3.097041
334.700000	49.930000	3.107148
334.800000	49.920000	3.117254
334.900000	49.910000	3.127361
335.000000	49.900000	3.137468
335.100000	49.890000	3.147575
335.200000	49.880000	3.157682
335.300000	49.870000	3.167788
335.400000	49.860000	3.177895
335.500000	49.850000	3.188002
335.600000	49.840000	3.198109
335.700000	49.830000	3.208216
335.800000	49.820000	3.218322
335.900000	49.810000	3.228429
336.000000	49.800000	3.238536
336.100000	49.790000	3.248643
336.200000	49.780000	3.258750
336.300000	49.770000	3.268856
336.400000	49.760000	3.278963
336.500000	49.750000	3.289070
336.600000	49.740000	3.299177
336.700000	49.730000	3.309284
336.800000	49.720000	3.319390
336.900000	49.710000	3.329497
337.000000	49.700000	3.339604
337.100000	49.690000	3.349711
337.200000	49.680000	3.359818
337.300000	49.670000	3.369924
337.400000	49.660000	3.380031
337.500000	49.650000	3.390138
337.600000	49.640000	3.400245
337.700000	49.630000	3.410352
337.800000	49.620000	3.420458
337.900000	49.610000	3.430565
338.000000	49.600000	3.440672
338.100000	49.590000	3.450779
338.200000	49.580000	3.460886
338.300000	49.570000	3.470992
338.400000	49.560000	3.481099
338.500000	49.550000	3.491206
338.600000	49.540000	3.501313
338.700000	49.530000	3.511420
338.800000	49.520000	3.521526
338.900000	49.510000	3.531633
339.000000	49.500000	3.541740
339.100000	49.490000	3.551847
339.200000	49.480000	3.561954
339.300000	49.470000	3.572060
339.400000	49.460000	3.582167
339.500000	49.450000	3.592274
339.600000	49.440000	3.602381
339.700000	49.430000	3.612488
339.800000	49.420000	3.622594
339.900000	49.410000	3.632701
340.000000	49.400000	3.642808
340.100000	49.390000	3.652915
340.200000	49.380000	3.663022
340.300000	49.370000	3.673128
340.400000	49.360000	3.683235
340.500000	49.350000	3.693342
340.600000	49.340000	3.703449
340.700000	49.330000	3.713556
340.800000	49.320000	3.723662
340.900000	49.310000	3.733769
341.000000	49.300000	3.743876
341.100000	49.290000	3.753983
341.200000	49.280000	3.764090
341.300000	49.270000	3.774196
341.400000	49.260000	3.784303
341.500000	49.250000	3.794410
341.600000	49.240000	3.804517
341.700000	49.230000	3.814624
341.800000	49.220000	3.824730
341.900000	49.210000	3.834837
342.000000	49.200000	3.844944
342.100000	49.190000	3.855051
342.200000	49.180000	3.865158
342.300000	49.170000	3.875264
342.400000	49.160000	3.885371
342.500000	49.150000	3.895478
342.600000	49.140000	3.905585
342.700000	49.130000	3.915692
342.800000	49.120000	3.925798
342.900000	49.110000	3.935905
343.000000	49.100000	3.946012
343.100000	49.090715	3.955396
343.200000	49.082544	3.963654
343.300000	49.075008	3.971271
343.400000	49.067632	3.978726
343.500000	49.059937	3.986503
343.600000	49.051447	3.995084
343.700000	49.041686	4.004949
343.800000	49.030176	4.016582
343.900000	49.016439	4.030465
344.000000	49.000000	4.047080
344.100000	48.963749	4.083718
344.200000	48.916891	4.131077
344.300000	48.893907	4.154306
344.400000	48.880256	4.168103
344.500000	48.868367	4.180119
344.600000	48.858033	4.190563
344.700000	48.849049	4.199643
344.800000	48.841206	4.207570
344.900000	48.834300	4.214550
345.000000	48.828122	4.220794
345.100000	48.822466	4.226510
345.200000	48.817126	4.231907
345.300000	48.811894	4.237195
345.400000	48.806565	4.242581
345.500000	48.800932	4.248274
345.600000	48.795241	4.254026
345.700000	48.790171	4.259150
345.800000	48.785659	4.263710
345.900000	48.781624	4.267788
346.000000	48.777990	4.271461
346.100000	48.774678	4.274808
346.200000	48.771608	4.277911
346.300000	48.768702	4.280848
346.400000	48.765881	4.283699
346.500000	48.763068	4.286542
346.600000	48.760182	4.289459
346.700000	48.757147	4.292527
346.800000	48.753882	4.295827
346.900000	48.750309	4.299438
347.000000	48.746350	4.303439
347.100000	48.741926	4.307910
347.200000	48.736959	4.312930
347.300000	48.731369	4.318580
347.400000	48.725079	4.324937
347.500000	48.718009	4.332083
347.600000	48.710081	4.340095
347.700000	48.701216	4.349055
347.800000	48.681604	4.368876
347.900000	48.646064	4.404796
348.000000	48.612436	4.438783
348.100000	48.597023	4.454361
348.200000	48.588804	4.462668
348.300000	48.581664	4.469884
348.400000	48.575501	4.476113
348.500000	48.570210	4.481460
348.600000	48.565686	4.486032
348.700000	48.561826	4.489934
348.800000	48.558525	4.493270
348.900000	48.555679	4.496146
349.000000	48.553184	4.498668
349.100000	48.550936	4.500940
349.200000	48.548829	4.503070
349.300000	48.546761	4.505160
349.400000	48.544626	4.507317
349.500000	48.542321	4.509647
349.600000	48.539742	4.512254
349.700000	48.536783	4.515244
349.800000	48.533342	4.518722
349.900000	48.529312	4.522795
350.000000	48.524592	4.527565
350.100000	48.519075	4.533141
350.200000	48.512659	4.539626
350.300000	48.505238	4.547126
350.400000	48.495648	4.556818
350.500000	48.474839	4.577850
350.600000	48.446812	4.606176
350.700000	48.419153	4.634130
350.800000	48.399435	4.654059
350.900000	48.386660	4.666970
351.000000	48.375618	4.678130
351.100000	48.365987	4.687864
351.200000	48.357441	4.696502
351.300000	48.349660	4.704366
351.400000	48.342318	4.711786
351.500000	48.335094	4.719087
351.600000	48.327663	4.726598
351.700000	48.319703	4.734643
351.800000	48.310891	4.743549
351.900000	48.300903	4.753643
352.000000	48.289526	4.765142
352.100000	48.276991	4.777811
352.200000	48.263632	4.791312
352.300000	48.249781	4.805311
352.400000	48.235772	4.819470
352.500000	48.221938	4.833452
352.600000	48.208613	4.846919
352.700000	48.196178	4.859487
352.800000	48.185358	4.870422
352.900000	48.175778	4.880105
353.000000	48.166763	4.889216
353.100000	48.157641	4.898435
353.200000	48.147737	4.908445
353.300000	48.136379	4.919924
353.400000	48.122892	4.933556
353.500000	48.106603	4.950018
353.600000	48.081277	4.975615
353.700000	48.038706	5.018641
353.800000	48.002636	5.055096
353.900000	47.983755	5.074178
354.000000	47.968394	5.089704
354.100000	47.955562	5.102673
354.200000	47.944484	5.113869
354.300000	47.934385	5.124076
354.400000	47.924490	5.134076
354.500000	47.914023	5.144655
354.600000	47.902211	5.156593
354.700000	47.889007	5.169938
354.800000	47.875466	5.183624
354.900000	47.861680	5.197557
355.000000	47.847713	5.211673
355.100000	47.833629	5.225908
355.200000	47.819492	5.240196
355.300000	47.805366	5.254473
355.400000	47.791225	5.268765
355.500000	47.776820	5.283324
355.600000	47.762257	5.298042
355.700000	47.747676	5.312779
355.800000	47.733220	5.327389
355.900000	47.719030	5.341731
356.000000	47.705248	5.355660
356.100000	47.691898	5.369153
356.200000	47.678638	5.382554
356.300000	47.665506	5.395826
356.400000	47.652585	5.408885
356.500000	47.639959	5.421646
356.600000	47.627713	5.434023
356.700000	47.615930	5.445932
356.800000	47.604695	5.457287
356.900000	47.594232	5.467862
357.000000	47.585092	5.477099
357.100000	47.576996	5.485282
357.200000	47.569568	5.492789
357.300000	47.562429	5.500004
357.400000	47.555204	5.507306
357.500000	47.547516	5.515077
357.600000	47.538987	5.523697
357.700000	47.529240	5.533548
357.800000	47.517899	5.545010
357.900000	47.504586	5.558465
358.000000	47.485868	5.577383
358.100000	47.456405	5.607161
358.200000	47.423904	5.640009
358.300000	47.396748	5.667455
358.400000	47.376093	5.688330
358.500000	47.358110	5.706505
358.600000	47.340631	5.724171
358.700000	47.321491	5.743515
358.800000	47.298508	5.766744
358.900000	47.266352	5.799243
359.000000	47.229510	5.836479
359.100000	47.198868	5.867448
359.200000	47.175638	5.890926
359.300000	47.154819	5.911968
359.400000	47.136112	5.930874
359.500000	47.119217	5.947950
359.600000	47.103833	5.963498
359.700000	47.089827	5.977654
359.800000	47.077297	5.990317
359.900000	47.065908	6.001828
360.000000	47.055303	6.012546
360.100000	47.045124	6.022834
360.200000	47.035014	6.033052
360.300000	47.024614	6.043563
360.400000	47.013568	6.054727
360.500000	47.001518	6.066906
360.600000	46.989349	6.079205
360.700000	46.978188	6.090485
360.800000	46.966928	6.101865
360.900000	46.954439	6.114488
361.000000	46.939591	6.129494
361.100000	46.921253	6.148028
361.200000	46.898129	6.171399
361.300000	46.843831	6.226277
361.400000	46.798432	6.272161
361.500000	46.781280	6.289496
361.600000	46.767696	6.303225
361.700000	46.756948	6.314088
361.800000	46.748306	6.322822
361.900000	46.741038	6.330168
362.000000	46.734412	6.336864
362.100000	46.727696	6.343652
362.200000	46.720159	6.351270
362.300000	46.711069	6.360457
362.400000	46.699695	6.371952
362.500000	46.685641	6.386156
362.600000	46.669522	6.402448
362.700000	46.652131	6.420024
362.800000	46.634260	6.438086
362.900000	46.616702	6.455832
363.000000	46.600250	6.472459
363.100000	46.585514	6.487353
363.200000	46.572053	6.500957
363.300000	46.559074	6.514075
363.400000	46.545781	6.527510
363.500000	46.531382	6.542063
363.600000	46.515082	6.558537
363.700000	46.495998	6.577825
363.800000	46.471149	6.602939
363.900000	46.441788	6.632614
364.000000	46.411170	6.663559
364.100000	46.380581	6.694474
364.200000	46.347118	6.728295
364.300000	46.316163	6.759580
364.400000	46.293336	6.782651
364.500000	46.275648	6.800528
364.600000	46.260562	6.815775
364.700000	46.247179	6.829301
364.800000	46.234601	6.842013
364.900000	46.221929	6.854821
365.000000	46.208264	6.868632
365.100000	46.192901	6.884159
365.200000	46.176721	6.900512
365.300000	46.160069	6.917341
365.400000	46.143053	6.934539
365.500000	46.125782	6.951995
365.600000	46.108364	6.969599
365.700000	46.091113	6.987034
365.800000	46.074827	7.003494
365.900000	46.058657	7.019837
366.000000	46.041540	7.037136
366.100000	46.022407	7.056474
366.200000	46.000193	7.078925
366.300000	45.969405	7.110042
366.400000	45.932424	7.147418
366.500000	45.900311	7.179874
366.600000	45.875892	7.204553
366.700000	45.853988	7.226691
366.800000	45.834111	7.246781
366.900000	45.815775	7.265313
367.000000	45.798516	7.282756
367.100000	45.784973	7.296443
367.200000	45.775397	7.306122
367.300000	45.767227	7.314379
367.400000	45.757906	7.323800
367.500000	45.744872	7.336973
367.600000	45.725566	7.356485
367.700000	45.695398	7.386975
367.800000	45.592698	7.490772
367.900000	45.572320	7.511368
368.000000	45.558456	7.525380
368.100000	45.549322	7.534611
368.200000	45.543135	7.540864
368.300000	45.538114	7.545939
368.400000	45.532475	7.551638
368.500000	45.524436	7.559763
368.600000	45.512214	7.572116
368.700000	45.492611	7.591928
368.800000	45.449656	7.635342
368.900000	45.405152	7.680321
369.000000	45.378536	7.707221
369.100000	45.357577	7.728404
369.200000	45.339222	7.746955
369.300000	45.320791	7.765583
369.400000	45.299606	7.786994
369.500000	45.285204	7.801550
369.600000	45.274185	7.812687
369.700000	45.245953	7.841220
369.800000	45.096121	7.992652
369.900000	45.080780	8.008157
370.000000	45.068401	8.020668
370.100000	45.058628	8.030546
370.200000	45.051107	8.038147
370.300000	45.045482	8.043832
370.400000	45.041397	8.047961
370.500000	45.038498	8.050891
370.600000	45.036428	8.052983
370.700000	45.034833	8.054595
370.800000	45.033357	8.056087
370.900000	45.031645	8.057817
371.000000	45.029341	8.060146
371.100000	45.026090	8.063431
371.200000	45.021536	8.068034
371.300000	45.015325	8.074311
371.400000	45.007101	8.082623
371.500000	44.996106	8.093736
371.600000	44.976772	8.113276
371.700000	44.949811	8.140525
371.800000	44.918323	8.172349
371.900000	44.882311	8.208746
372.000000	44.832560	8.259028
372.100000	44.797437	8.294526
372.200000	44.780455	8.311690
372.300000	44.769112	8.323154
372.400000	44.761230	8.331120
372.500000	44.754631	8.337790
372.600000	44.747139	8.345362
372.700000	44.736575	8.356038
372.800000	44.720761	8.372021
372.900000	44.696464	8.396578
373.000000	44.603108	8.490931
373.100000	44.561174	8.533313
373.200000	44.531242	8.563564
373.300000	44.508856	8.586189
373.400000	44.490476	8.604766
373.500000	44.475986	8.619410
373.600000	44.464397	8.631123
373.700000	44.454421	8.641206
373.800000	44.444766	8.650964
373.900000	44.434140	8.661703
374.000000	44.421254	8.674727
374.100000	44.404816	8.691341
374.200000	44.379943	8.716479
374.300000	44.343455	8.753357
374.400000	44.307027	8.790174
374.500000	44.277501	8.820015
374.600000	44.249356	8.848461
374.700000	44.223829	8.874261
374.800000	44.202534	8.895783
374.900000	44.185949	8.912545
375.000000	44.172300	8.926340
375.100000	44.160605	8.938160
375.200000	44.149901	8.948978
375.300000	44.139227	8.959766
375.400000	44.127621	8.971496
375.500000	44.114121	8.985140
375.600000	44.097751	9.001685
375.700000	44.076893	9.022766
375.800000	44.052035	9.047889
375.900000	44.024731	9.075485
376.000000	43.996480	9.104038
376.100000	43.964920	9.135935
376.200000	43.931306	9.169908
376.300000	43.900142	9.201404
376.400000	43.872753	9.229086
376.500000	43.847075	9.255038
376.600000	43.822600	9.279775
376.700000	43.798822	9.303807
376.800000	43.776222	9.326648
376.900000	43.754774	9.348325
377.000000	43.733494	9.369832
377.100000	43.711399	9.392163
377.200000	43.687345	9.416474
377.300000	43.660706	9.443398
377.400000	43.633552	9.470842
377.500000	43.608234	9.496430
377.600000	43.586802	9.518091
377.700000	43.568649	9.536438
377.800000	43.551920	9.553345
377.900000	43.534765	9.570684
378.000000	43.515335	9.590321
378.100000	43.491296	9.614617
378.200000	43.457788	9.648483
378.300000	43.422133	9.684519
378.400000	43.394396	9.712552
378.500000	43.375317	9.731835
378.600000	43.360260	9.747052
378.700000	43.345819	9.761648
378.800000	43.328590	9.779061
378.900000	43.305166	9.802735
379.000000	43.258865	9.849530
379.100000	43.203398	9.905590
379.200000	43.177497	9.931767
379.300000	43.158404	9.951064
379.400000	43.143181	9.966450
379.500000	43.129226	9.980554
379.600000	43.113933	9.996010
379.700000	43.094848	10.015299
379.800000	43.073246	10.037132
379.900000	43.050027	10.060599
380.000000	43.024972	10.085921
380.100000	42.997836	10.113347
380.200000	42.964776	10.146760
380.300000	42.928941	10.182978
380.400000	42.898629	10.213614
380.500000	42.875105	10.237389
380.600000	42.854397	10.258318
380.700000	42.835454	10.277463
380.800000	42.817222	10.295890
380.900000	42.798662	10.314648
381.000000	42.781749	10.331742
381.100000	42.766917	10.346732
381.200000	42.751958	10.361851
381.300000	42.734664	10.379330
381.400000	42.712828	10.401399
381.500000	42.680638	10.433933
381.600000	42.627781	10.487354
381.700000	42.575038	10.540661
381.800000	42.522124	10.594140
381.900000	42.485348	10.631308
382.000000	42.458311	10.658634
382.100000	42.435767	10.681419
382.200000	42.415268	10.702137
382.300000	42.394489	10.723138
382.400000	42.374014	10.743832
382.500000	42.354447	10.763608
382.600000	42.335647	10.782608
382.700000	42.317475	10.800974
382.800000	42.299790	10.818848
382.900000	42.284375	10.834428
383.000000	42.271611	10.847328
383.100000	42.259418	10.859651
383.200000	42.245715	10.873501
383.300000	42.228421	10.890979
383.400000	42.205457	10.914189
383.500000	42.155227	10.964955
383.600000	42.098465	11.022323
383.700000	42.075360	11.045675
383.800000	42.059241	11.061966
383.900000	42.047020	11.074318
384.000000	42.035606	11.085854
384.100000	42.021910	11.099696
384.200000	42.002843	11.118967
384.300000	41.970288	11.151869
384.400000	41.927473	11.195142
384.500000	41.894889	11.228074
384.600000	41.872580	11.250621
384.700000	41.853886	11.269514
384.800000	41.837239	11.286339
384.900000	41.821067	11.302684
385.000000	41.803799	11.320136
385.100000	41.784838	11.339300
385.200000	41.765555	11.358789
385.300000	41.746111	11.378441
385.400000	41.726619	11.398141
385.500000	41.707189	11.417778
385.600000	41.688348	11.436820
385.700000	41.671027	11.454326
385.800000	41.653891	11.471645
385.900000	41.635419	11.490315
386.000000	41.614093	11.511868
386.100000	41.588886	11.537345
386.200000	41.559477	11.567068
386.300000	41.517392	11.609602
386.400000	41.421936	11.706078
386.500000	41.359016	11.769670
386.600000	41.310427	11.818778
386.700000	41.269370	11.860273
386.800000	41.236886	11.893104
386.900000	41.214015	11.916219
387.000000	41.201800	11.928565
387.100000	41.233018	11.897013
387.200000	41.298361	11.830972
387.300000	41.269241	11.860404
387.400000	41.216904	11.913299
387.500000	41.158638	11.972188
387.600000	41.111732	12.019595
387.700000	41.087331	12.044256
387.800000	41.069500	12.062278
387.900000	41.054781	12.077154
388.000000	41.041975	12.090097
388.100000	41.029884	12.102317
388.200000	41.017308	12.115027
388.300000	41.003047	12.129440
388.400000	40.989159	12.143477
388.500000	40.979275	12.153466
388.600000	40.969226	12.163623
388.700000	40.954639	12.178365
388.800000	40.931140	12.202115
388.900000	40.880008	12.253794
389.000000	40.779145	12.355734
389.100000	40.756371	12.378751
389.200000	40.741952	12.393324
389.300000	40.732724	12.402651
389.400000	40.725520	12.409931
389.500000	40.717177	12.418364
389.600000	40.704528	12.431148
389.700000	40.686131	12.449741
389.800000	40.665081	12.471016
389.900000	40.641964	12.494380
390.000000	40.617181	12.519428
390.100000	40.590769	12.546122
390.200000	40.559823	12.577398
390.300000	40.527471	12.610096
390.400000	40.498578	12.639297
390.500000	40.474799	12.663330
390.600000	40.453549	12.684807
390.700000	40.432776	12.705802
390.800000	40.410427	12.728390
390.900000	40.384225	12.754871
391.000000	40.353714	12.785708
391.100000	40.322807	12.816945
391.200000	40.295668	12.844374
391.300000	40.272898	12.867387
391.400000	40.252266	12.888240
391.500000	40.232056	12.908666
391.600000	40.210554	12.930397
391.700000	40.185938	12.955276
391.800000	40.157856	12.983658
391.900000	40.129091	13.012730
392.000000	40.102659	13.039445
392.100000	40.080948	13.061387
392.200000	40.062546	13.079986
392.300000	40.044628	13.098095
392.400000	40.024366	13.118574
392.500000	39.998923	13.144289
392.600000	39.960318	13.183306
392.700000	39.914907	13.229202
392.800000	39.874887	13.269649
392.900000	39.835949	13.309003
393.000000	39.804460	13.340828
393.100000	39.784771	13.360728
393.200000	39.771958	13.373677
393.300000	39.762687	13.383047
393.400000	39.753745	13.392085
393.500000	39.741915	13.404041
393.600000	39.723983	13.422165
393.700000	39.694972	13.451486
393.800000	39.595597	13.551922
393.900000	39.559860	13.588041
394.000000	39.535482	13.612679
394.100000	39.517149	13.631208
394.200000	39.499548	13.648997
394.300000	39.482514	13.666213
394.400000	39.468196	13.680684
394.500000	39.455344	13.693673
394.600000	39.442712	13.706440
394.700000	39.429052	13.720246
394.800000	39.413116	13.736352
394.900000	39.393511	13.756166
395.000000	39.367856	13.782095
395.100000	39.337798	13.812474
395.200000	39.306081	13.844530
395.300000	39.274251	13.876700
395.400000	39.240491	13.910821
395.500000	39.203560	13.948146
395.600000	39.154597	13.997632
395.700000	39.093094	14.059792
395.800000	39.036682	14.116806
395.900000	39.003093	14.150754
396.000000	39.077125	14.075931
396.100000	38.975384	14.178759
396.200000	38.900021	14.254927
396.300000	38.881784	14.273359
396.400000	38.868677	14.286606
396.500000	38.859431	14.295950
396.600000	38.852774	14.302678
396.700000	38.847435	14.308074
396.800000	38.842142	14.313424
396.900000	38.835624	14.320012
397.000000	38.826611	14.329121
397.100000	38.813830	14.342038
397.200000	38.794732	14.361340
397.300000	38.733785	14.422938
397.400000	38.641280	14.516431
397.500000	38.552402	14.606258
397.600000	38.502333	14.656862
397.700000	38.664644	14.492818
397.800000	38.509706	14.649410
397.900000	38.398792	14.761509
398.000000	38.370538	14.790065
398.100000	38.350509	14.810308
398.200000	38.335772	14.825202
398.300000	38.323394	14.837712
398.400000	38.310442	14.850802
398.500000	38.294156	14.867262
398.600000	38.274954	14.886669
398.700000	38.253974	14.907874
398.800000	38.231917	14.930166
398.900000	38.209484	14.952839
399.000000	38.187376	14.975183
399.100000	38.166294	14.996490
399.200000	38.146938	15.016053
399.300000	38.130011	15.033160
399.400000	38.116212	15.047107
399.500000	38.106243	15.057182
399.600000	38.100806	15.062677
