Dividing Wavelength (nm)	Power (W)	
300.000000	46.092254
301.000000	30.341966
302.000000	17.750787
303.000000	61.190087
304.000000	0.323471
305.000000	95.449400
306.000000	74.858814
307.000000	58.557910
308.000000	92.403799
309.000000	50.306753
310.000000	54.196592
311.000000	84.570905
312.000000	29.369530
313.000000	66.648768
314.000000	46.603575
315.000000	70.612008
316.000000	72.174253
317.000000	35.797704
318.000000	60.907807
319.000000	51.431478
320.000000	83.746376
321.000000	62.369807
322.000000	44.319364
323.000000	61.706724
324.000000	3.837593
325.000000	22.563595
326.000000	20.618634
327.000000	72.096231
328.000000	57.536835
329.000000	86.745000
330.000000	93.077927
331.000000	82.812028
332.000000	72.583878
333.000000	55.353976
334.000000	47.335962
335.000000	14.701023
336.000000	30.147937
337.000000	65.046589
338.000000	34.246619
339.000000	41.455190
340.000000	30.362292
341.000000	8.465001
342.000000	8.124314
343.000000	74.244239
344.000000	49.447184
345.000000	7.547572
346.000000	30.941467
347.000000	82.654423
348.000000	18.507711
349.000000	55.799689
350.000000	10.763171
351.000000	58.631824
352.000000	88.246644
353.000000	57.000084
354.000000	32.544257
355.000000	83.043679
356.000000	53.935773
357.000000	95.774021
358.000000	97.055639
359.000000	20.838805
360.000000	10.269596
361.000000	23.503665
362.000000	46.934104
363.000000	78.403727
364.000000	32.928225
365.000000	56.003538
366.000000	70.669751
367.000000	53.990857
368.000000	33.570318
369.000000	18.314186
370.000000	83.393288
371.000000	57.580501
372.000000	77.367065
373.000000	90.377695
374.000000	78.854369
375.000000	59.051548
376.000000	20.609790
377.000000	51.615778
378.000000	46.958009
379.000000	25.868531
380.000000	76.081029
381.000000	13.336509
382.000000	52.488968
383.000000	8.653145
384.000000	78.933772
385.000000	61.611598
386.000000	48.415475
387.000000	62.083403
388.000000	99.898389
389.000000	77.226232
390.000000	26.777586
391.000000	35.856692
392.000000	60.123022
393.000000	24.000375
394.000000	93.898467
395.000000	21.589743
396.000000	50.955475
397.000000	33.538345
398.000000	69.980076
399.000000	62.506117
400.000000	40.572067
401.000000	30.326142
402.000000	81.215864
403.000000	50.888440
404.000000	9.489326
405.000000	99.472234
406.000000	43.895263
407.000000	26.061464
408.000000	38.910908
409.000000	66.113543
410.000000	34.471533
411.000000	66.241696
412.000000	28.089667
413.000000	99.232784
414.000000	55.068604
415.000000	11.392461
416.000000	4.429337
417.000000	25.114741
418.000000	92.086841
419.000000	87.085539
420.000000	40.317879
421.000000	53.028596
422.000000	15.622577
423.000000	48.072575
424.000000	19.583059
425.000000	35.178290
426.000000	77.366540
427.000000	56.280801
428.000000	79.665492
429.000000	99.159608
430.000000	9.937818
431.000000	65.387844
432.000000	86.564633
433.000000	43.011821
434.000000	77.945241
435.000000	28.147602
436.000000	52.974881
437.000000	36.377901
438.000000	35.896223
439.000000	95.940356
440.000000	90.128151
441.000000	4.847398
442.000000	80.412908
443.000000	90.746110
444.000000	57.475654
445.000000	11.089165
446.000000	88.877900
447.000000	0.657053
448.000000	56.362368
449.000000	31.814094
450.000000	93.165517
451.000000	91.951359
452.000000	50.106960
453.000000	57.244095
454.000000	54.736451
455.000000	17.164167
456.000000	78.977375
457.000000	84.796664
458.000000	68.058342
459.000000	15.676141
460.000000	38.224658
461.000000	96.777080
462.000000	37.084768
463.000000	62.654879
464.000000	63.801355
465.000000	41.748188
466.000000	35.281798
467.000000	94.440027
468.000000	70.078785
469.000000	82.241114
470.000000	49.998889
471.000000	22.816839
472.000000	61.237847
473.000000	19.915799
474.000000	20.060946
475.000000	20.028928
476.000000	78.039686
477.000000	88.247478
478.000000	12.703493
479.000000	24.356391
480.000000	38.674969
481.000000	20.452305
482.000000	73.902799
483.000000	88.516574
484.000000	49.299618
485.000000	90.704763
486.000000	82.057235
487.000000	55.375791
488.000000	26.801026
489.000000	28.774522
490.000000	89.616992
491.000000	15.758228
492.000000	64.366463
493.000000	19.853276
494.000000	0.023706
495.000000	30.693219
496.000000	38.587142
497.000000	54.361860
498.000000	70.642607
499.000000	62.854182
500.000000	9.205191
501.000000	86.780224
502.000000	43.956585
503.000000	40.149841
504.000000	26.441960
505.000000	25.806326
506.000000	7.325030
507.000000	33.332300
508.000000	95.925457
509.000000	78.749418
510.000000	59.397858
511.000000	38.841525
512.000000	68.871636
513.000000	41.708667
514.000000	18.014699
515.000000	10.233775
516.000000	65.854049
517.000000	71.077472
518.000000	97.308267
519.000000	37.847942
520.000000	45.595564
521.000000	20.476909
522.000000	94.458648
523.000000	24.952369
524.000000	62.098196
525.000000	4.908156
526.000000	81.311966
527.000000	21.294529
528.000000	50.472591
529.000000	77.633551
530.000000	64.684646
531.000000	85.689517
532.000000	50.286874
533.000000	58.408308
534.000000	9.794844
535.000000	13.250815
536.000000	51.748910
537.000000	72.293980
538.000000	75.934867
539.000000	0.651264
540.000000	66.806584
541.000000	13.585791
542.000000	10.441164
543.000000	73.320312
544.000000	92.840493
545.000000	61.930562
546.000000	11.852969
547.000000	85.563929
548.000000	17.863084
549.000000	42.082231
550.000000	70.764098
551.000000	1.129151
552.000000	48.076187
553.000000	32.411559
554.000000	88.392915
555.000000	94.921840
556.000000	80.664694
557.000000	58.291407
558.000000	34.057353
559.000000	31.336762
560.000000	65.199445
561.000000	52.136692
562.000000	83.812038
563.000000	96.063358
564.000000	64.717159
565.000000	72.024598
566.000000	64.486349
567.000000	21.605115
568.000000	85.330810
569.000000	53.210342
570.000000	48.740140
571.000000	49.321768
572.000000	55.494499
573.000000	14.572193
574.000000	2.473886
575.000000	79.679604
576.000000	10.889115
577.000000	61.985818
578.000000	90.480737
579.000000	5.761025
580.000000	75.359568
581.000000	96.180569
582.000000	2.854938
583.000000	68.158057
584.000000	16.291030
585.000000	99.055217
586.000000	43.340978
587.000000	12.866786
588.000000	89.175657
589.000000	70.096355
590.000000	37.784021
591.000000	44.699728
592.000000	20.486573
593.000000	78.590082
594.000000	21.122741
595.000000	41.263131
596.000000	93.885804
597.000000	27.425246
598.000000	22.331947
599.000000	35.591933
600.000000	85.028111
601.000000	54.546024
602.000000	36.916762
603.000000	8.791234
604.000000	98.241312
605.000000	98.347824
606.000000	50.468479
607.000000	10.050940
608.000000	14.900627
609.000000	71.216951
610.000000	22.140857
611.000000	97.453406
612.000000	56.282158
613.000000	37.738958
614.000000	3.696083
615.000000	99.674681
616.000000	4.276748
617.000000	95.448218
618.000000	90.379423
619.000000	67.712372
620.000000	81.778865
621.000000	19.997016
622.000000	19.747885
623.000000	49.576121
624.000000	86.110310
625.000000	71.536883
626.000000	16.216476
627.000000	55.987916
628.000000	55.515678
629.000000	38.358282
630.000000	53.218333
631.000000	48.423529
632.000000	67.040380
633.000000	74.561071
634.000000	14.296624
635.000000	71.482484
636.000000	77.015180
637.000000	16.075009
638.000000	98.931372
639.000000	0.972445
640.000000	30.673476
641.000000	48.120100
642.000000	9.363860
643.000000	18.243888
644.000000	65.601676
645.000000	36.752155
646.000000	11.798115
647.000000	84.031616
648.000000	98.303360
649.000000	52.967285
650.000000	45.837943
651.000000	50.198166
652.000000	1.488940
653.000000	29.694918
654.000000	59.557949
655.000000	16.654805
656.000000	77.129817
657.000000	3.688651
658.000000	3.603802
659.000000	45.062446
660.000000	87.940407
661.000000	1.652036
662.000000	72.206769
663.000000	76.917386
664.000000	83.927470
665.000000	38.775550
666.000000	14.115417
667.000000	77.927532
668.000000	46.960331
669.000000	81.087245
670.000000	20.567783
671.000000	46.984972
672.000000	26.162595
673.000000	43.653809
674.000000	97.049368
675.000000	9.879704
676.000000	93.695741
677.000000	18.603486
678.000000	79.061495
679.000000	77.830705
680.000000	71.241181
681.000000	17.695792
682.000000	99.121971
683.000000	92.964189
684.000000	79.530678
685.000000	16.856527
686.000000	21.920524
687.000000	27.393276
688.000000	51.754156
689.000000	53.417883
690.000000	1.317773
691.000000	2.461953
692.000000	18.308225
693.000000	44.449919
694.000000	30.159538
695.000000	93.172309
696.000000	13.101865
697.000000	55.705200
698.000000	27.407572
699.000000	38.383385
700.000000	70.008163
701.000000	0.869126
702.000000	48.507610
703.000000	60.090135
704.000000	6.001600
705.000000	43.357554
706.000000	47.980216
707.000000	42.758949
708.000000	18.682765
709.000000	81.268417
710.000000	55.916989
711.000000	31.173365
712.000000	79.638191
713.000000	48.199071
714.000000	74.448083
715.000000	11.810704
716.000000	6.798974
717.000000	20.617190
718.000000	48.055297
719.000000	13.721044
720.000000	5.135069
721.000000	5.417478
722.000000	89.215138
723.000000	84.339054
724.000000	42.711463
725.000000	77.453203
726.000000	42.609135
727.000000	31.782411
728.000000	58.231689
729.000000	36.764756
730.000000	84.158040
731.000000	70.907907
732.000000	16.973558
733.000000	91.696513
734.000000	54.681576
735.000000	19.338898
736.000000	76.326013
737.000000	75.330747
738.000000	39.749298
739.000000	45.270217
740.000000	82.183023
741.000000	45.914777
742.000000	89.999164
743.000000	38.206278
744.000000	14.068344
745.000000	8.118816
746.000000	82.103624
747.000000	5.448354
748.000000	4.568629
749.000000	5.114754
750.000000	44.982181
751.000000	28.708084
752.000000	73.083635
753.000000	66.459561
754.000000	18.523938
755.000000	36.090949
756.000000	22.612830
757.000000	60.566131
758.000000	17.567564
759.000000	83.219256
760.000000	6.547196
761.000000	23.679647
762.000000	22.647165
763.000000	35.916072
764.000000	50.988597
765.000000	60.408544
766.000000	62.080070
767.000000	15.408938
768.000000	51.669254
769.000000	35.538435
770.000000	7.046445
771.000000	50.642345
772.000000	50.174601
773.000000	97.101289
774.000000	48.838934
775.000000	48.840426
776.000000	36.182515
777.000000	5.964158
778.000000	42.932184
779.000000	59.989792
780.000000	4.659361
781.000000	2.422344
782.000000	75.599098
783.000000	83.323767
784.000000	58.673305
785.000000	86.338550
786.000000	19.129914
787.000000	96.466785
788.000000	75.959293
789.000000	44.729703
790.000000	29.111404
791.000000	60.915570
792.000000	45.038666
793.000000	53.097170
794.000000	43.085989
795.000000	45.193917
796.000000	66.967971
797.000000	21.091945
798.000000	50.907821
799.000000	20.061177
800.000000	25.987724
801.000000	64.409158
802.000000	34.848303
803.000000	35.717695
804.000000	26.884237
805.000000	71.418843
806.000000	4.020087
807.000000	19.825386
808.000000	93.589310
809.000000	85.458112
810.000000	20.754000
811.000000	85.222118
812.000000	12.771120
813.000000	25.374583
814.000000	8.717988
815.000000	74.979067
816.000000	35.141749
817.000000	0.537906
818.000000	6.781254
819.000000	45.418439
820.000000	86.460748
821.000000	1.801288
822.000000	25.048601
823.000000	34.577565
824.000000	36.222242
825.000000	74.117075
826.000000	41.488654
827.000000	46.743956
828.000000	49.246475
829.000000	20.869677
830.000000	57.270108
831.000000	92.751576
832.000000	55.099469
833.000000	44.303286
834.000000	81.019062
835.000000	41.026364
836.000000	94.546283
837.000000	37.367766
838.000000	44.052516
839.000000	20.091806
840.000000	55.060646
841.000000	95.733423
842.000000	12.741075
843.000000	42.162405
844.000000	0.103950
845.000000	69.209810
846.000000	96.786186
847.000000	82.120426
848.000000	67.542234
849.000000	83.368227
850.000000	44.970358
851.000000	14.731710
852.000000	38.049636
853.000000	15.602063
854.000000	51.463501
855.000000	59.054789
856.000000	52.972669
857.000000	34.869060
858.000000	24.925154
859.000000	69.250421
860.000000	34.116861
861.000000	81.579475
862.000000	23.762982
863.000000	47.598759
864.000000	20.871040
865.000000	10.966812
866.000000	73.395218
867.000000	58.213343
868.000000	88.990663
869.000000	86.199440
870.000000	23.636484
871.000000	10.566250
872.000000	30.902701
873.000000	26.287325
874.000000	10.953824
875.000000	81.497762
876.000000	91.146400
877.000000	71.753113
878.000000	35.856914
879.000000	11.442083
880.000000	66.511581
881.000000	4.640462
882.000000	24.296775
883.000000	58.702861
884.000000	49.008735
885.000000	54.750248
886.000000	95.999279
887.000000	82.670953
888.000000	91.850884
889.000000	94.141192
890.000000	22.994279
891.000000	36.646717
892.000000	21.019405
893.000000	73.202048
894.000000	39.159341
895.000000	26.633431
896.000000	94.438257
897.000000	82.623478
898.000000	95.064414
899.000000	34.160810
900.000000	78.814792
901.000000	51.577445
902.000000	82.447126
903.000000	29.615275
904.000000	56.288316
905.000000	94.522015
906.000000	25.149201
907.000000	74.263765
908.000000	15.831235
909.000000	66.302157
910.000000	62.409229
911.000000	65.578049
912.000000	16.897554
913.000000	73.013098
914.000000	38.600176
915.000000	90.333221
916.000000	67.268195
917.000000	23.436224
918.000000	41.619906
919.000000	45.827337
920.000000	87.828405
921.000000	86.305928
922.000000	10.232833
923.000000	56.715544
924.000000	41.875161
925.000000	54.806439
926.000000	31.652302
927.000000	87.442085
928.000000	41.004925
929.000000	17.124752
930.000000	74.354523
931.000000	91.313481
932.000000	60.688749
933.000000	23.295165
934.000000	68.910712
935.000000	23.150974
936.000000	48.562099
937.000000	80.199901
938.000000	73.661440
939.000000	27.892344
940.000000	91.883219
941.000000	11.109506
942.000000	52.677898
943.000000	44.303416
944.000000	90.470510
945.000000	25.525230
946.000000	92.057368
947.000000	71.996425
948.000000	48.418227
949.000000	92.791331
950.000000	64.092477
951.000000	12.085692
952.000000	46.564707
953.000000	53.867695
954.000000	29.886868
955.000000	46.184988
956.000000	87.254542
957.000000	55.453539
958.000000	93.565220
959.000000	3.336640
960.000000	98.454877
961.000000	51.111715
962.000000	93.574918
963.000000	6.417601
964.000000	34.161506
965.000000	92.242378
966.000000	66.597857
967.000000	77.111915
968.000000	39.987348
969.000000	53.335498
970.000000	52.151705
971.000000	96.964643
972.000000	16.765324
973.000000	81.144183
974.000000	30.498907
975.000000	4.126520
976.000000	52.260935
977.000000	80.701814
978.000000	30.758470
979.000000	21.614286
980.000000	93.822453
981.000000	62.639259
982.000000	32.902874
983.000000	53.958468
984.000000	77.446663
985.000000	72.765567
986.000000	48.438277
987.000000	19.324859
988.000000	56.165768
989.000000	18.956668
990.000000	16.825349
991.000000	98.915990
992.000000	88.957600
993.000000	47.256007
994.000000	11.628752
995.000000	34.894249
996.000000	27.511086
997.000000	43.672460
998.000000	18.689542
999.000000	82.460164
1000.000000	65.236134
1001.000000	52.439557
1002.000000	76.366092
1003.000000	51.257559
1004.000000	92.158729
1005.000000	74.307915
1006.000000	16.618358
1007.000000	18.622179
1008.000000	7.339153
1009.000000	44.256760
1010.000000	39.569364
1011.000000	67.880962
1012.000000	88.982611
1013.000000	95.767816
1014.000000	19.079120
1015.000000	59.776826
1016.000000	20.082827
1017.000000	23.305809
1018.000000	72.691160
1019.000000	95.997962
1020.000000	9.053464
1021.000000	17.372858
1022.000000	74.717343
1023.000000	29.072126
1024.000000	45.896109
1025.000000	81.303088
1026.000000	3.958252
1027.000000	40.702064
1028.000000	44.214452
1029.000000	34.072810
1030.000000	48.978528
1031.000000	19.576568
1032.000000	62.373358
1033.000000	0.977964
1034.000000	9.920874
1035.000000	86.294612
1036.000000	47.417981
1037.000000	58.299657
1038.000000	19.828348
1039.000000	9.118829
1040.000000	12.778888
1041.000000	66.052490
1042.000000	3.850982
1043.000000	70.274080
1044.000000	25.618154
1045.000000	23.654330
1046.000000	67.758076
1047.000000	51.131597
1048.000000	52.375573
1049.000000	94.470632
1050.000000	4.607721
1051.000000	70.304066
1052.000000	5.005473
1053.000000	44.810743
1054.000000	40.692632
1055.000000	50.474821
1056.000000	60.673710
1057.000000	62.124709
1058.000000	72.846764
1059.000000	43.320750
1060.000000	88.104848
1061.000000	49.957078
1062.000000	75.070191
1063.000000	42.321997
1064.000000	91.077554
1065.000000	10.744117
1066.000000	83.675029
1067.000000	42.877170
1068.000000	68.476647
1069.000000	48.608130
1070.000000	93.862701
1071.000000	21.043938
1072.000000	67.217858
1073.000000	26.846797
1074.000000	21.687120
1075.000000	48.961859
1076.000000	39.202082
1077.000000	43.990917
1078.000000	34.989016
1079.000000	54.771231
1080.000000	37.309163
1081.000000	76.806087
1082.000000	11.841616
1083.000000	99.575903
1084.000000	19.542577
1085.000000	84.008915
1086.000000	80.105432
1087.000000	31.608179
1088.000000	41.790613
1089.000000	69.081510
1090.000000	40.096753
1091.000000	39.547337
1092.000000	33.753964
1093.000000	14.313027
1094.000000	46.272140
1095.000000	40.210391
1096.000000	51.995166
1097.000000	89.873923
1098.000000	47.283547
1099.000000	44.471055
1100.000000	18.000324
