Dividing Wavelength (nm)	Counts (n)	Blue Motor Position (mm): 0.000000	Red Motor Position (mm): 49.600000	
326.493990	1.001762
326.888308	1.001762
327.282561	1.001762
327.676750	0.999062
328.070874	0.998855
328.464933	0.999487
328.858929	0.999802
329.252859	1.000360
329.646726	0.999589
330.040528	0.999822
330.434265	0.998867
330.827938	1.000720
331.221547	1.000352
331.615091	0.999436
332.008571	1.000080
332.401986	0.999891
332.795338	0.999912
333.188625	0.997982
333.581847	1.000191
333.975006	1.000666
334.368100	0.999772
334.761129	1.000773
335.154095	1.001025
335.546996	1.000235
335.939833	0.999780
336.332606	1.000147
336.725315	1.000652
337.117960	1.000923
337.510540	0.999588
337.903056	1.001373
338.295508	0.999603
338.687896	1.000087
339.080220	1.000506
339.472480	0.999870
339.864676	1.000486
340.256807	0.999661
340.648875	1.001247
341.040879	1.000261
341.432818	1.000191
341.824694	0.999737
342.216506	1.001495
342.608253	0.999012
342.999937	1.000846
343.391557	1.000322
343.783113	1.000266
344.174605	0.999595
344.566033	1.001059
344.957397	0.998913
345.348697	0.999398
345.739934	1.000122
346.131106	0.999026
346.522215	0.999111
346.913260	0.999888
347.304241	0.999564
347.695159	0.998887
348.086012	0.999377
348.476802	1.000395
348.867528	0.999443
349.258191	0.999232
349.648789	1.000528
350.039324	0.999378
350.429796	0.999898
350.820203	1.000544
351.210548	1.000274
351.600828	0.999386
351.991045	0.999702
352.381198	0.996517
352.771288	1.000171
353.161314	1.000017
353.551276	1.000744
353.941175	0.999641
354.331010	0.999491
354.720782	1.001156
355.110490	0.998773
355.500135	1.000319
355.889717	0.999540
356.279235	0.999767
356.668689	0.999354
357.058080	0.999750
357.447408	1.001181
357.836672	0.999746
358.225873	0.999803
358.615010	1.000325
359.004084	1.000988
359.393095	1.000630
359.782043	1.000530
360.170927	1.001188
360.559748	1.001647
360.948505	0.999100
361.337199	1.001014
361.725830	1.000552
362.114398	1.000095
362.502903	1.001024
362.891344	1.000498
363.279722	0.999542
363.668037	1.000895
364.056289	1.000903
364.444478	1.002423
364.832603	1.000879
365.220665	1.000037
365.608665	1.000259
365.996601	1.000305
366.384474	1.001308
366.772284	0.999037
367.160031	0.998808
367.547715	1.000130
367.935336	1.000026
368.322893	0.999962
368.710388	0.998603
369.097820	1.000701
369.485189	0.999135
369.872495	0.999566
370.259738	0.998598
370.646918	1.001585
371.034035	1.001160
371.421090	0.999876
371.808081	1.000439
372.195010	0.999324
372.581875	1.000715
372.968678	0.999584
373.355418	1.000640
373.742096	0.999723
374.128710	1.000313
374.515262	0.999077
374.901751	0.999950
375.288177	0.999718
375.674540	1.000613
376.060841	0.999442
376.447079	1.001310
376.833254	0.998921
377.219367	0.999496
377.605417	0.999697
377.991404	1.000526
378.377329	0.999224
378.763191	0.999522
379.148991	1.000540
379.534727	1.000217
379.920402	0.999808
380.306013	1.001178
380.691563	1.000777
381.077049	1.000290
381.462474	0.999749
381.847835	1.000397
382.233134	0.999910
382.618371	1.000236
383.003545	1.000275
383.388657	0.999642
383.773706	1.001628
384.158693	1.000921
384.543618	0.999610
384.928480	1.000915
385.313280	0.999808
385.698017	1.001078
386.082692	1.001265
386.467305	1.000252
386.851856	1.000410
387.236344	1.001100
387.620770	0.999560
388.005133	1.001181
388.389435	1.000567
388.773674	1.000166
389.157851	1.000373
389.541965	1.000686
389.926018	1.000626
390.310008	1.001598
390.693936	0.999572
391.077802	1.000871
391.461606	0.999786
391.845348	1.000384
392.229027	1.001637
392.612645	1.001526
392.996200	1.001483
393.379694	1.000689
393.763125	1.001669
394.146494	1.001710
394.529801	1.000367
394.913047	1.001092
395.296230	1.000987
395.679351	1.001013
396.062410	1.000680
396.445408	1.001603
396.828343	1.000395
397.211217	1.000631
397.594028	1.000596
397.976778	0.999669
398.359466	1.000686
398.742092	0.999578
399.124656	1.000237
399.507158	1.000080
399.889598	1.000795
400.271977	1.000386
400.654294	1.001447
401.036549	1.000692
401.418742	1.001458
401.800874	0.999782
402.182944	1.000302
402.564952	0.999428
402.946898	1.001552
403.328783	1.000394
403.710606	1.000516
404.092367	1.000726
404.474067	1.000808
404.855705	1.000338
405.237282	1.001164
405.618797	1.000974
406.000250	0.999830
406.381642	1.001286
406.762972	1.000398
407.144240	1.001831
407.525447	1.000509
407.906593	1.000953
408.287677	1.001539
408.668700	1.000977
409.049661	0.999147
409.430560	1.001034
409.811399	1.000487
410.192176	1.000380
410.572891	1.000286
410.953545	1.000280
411.334138	1.000128
411.714669	1.001586
412.095139	1.000810
412.475547	1.001560
412.855894	1.000741
413.236180	1.000876
413.616405	1.000938
413.996568	1.002051
414.376670	1.000764
414.756711	1.000831
415.136691	1.000805
415.516609	1.000656
415.896466	1.000118
416.276262	1.000073
416.655997	1.001356
417.035670	0.999746
417.415283	1.000918
417.794834	1.000355
418.174324	1.001445
418.553753	1.000951
418.933121	1.001062
419.312428	1.000576
419.691674	1.000718
420.070859	1.000429
420.449983	1.000634
420.829045	1.001159
421.208047	1.001304
421.586988	1.002931
421.965867	1.001037
422.344686	1.001016
422.723444	1.000701
423.102141	1.001213
423.480777	1.001087
423.859352	1.001029
424.237866	1.000223
424.616319	1.000697
424.994712	1.000727
425.373044	1.001327
425.751314	1.000905
426.129524	1.001128
426.507673	1.001024
426.885762	1.001673
427.263789	1.000721
427.641756	1.001227
428.019662	1.001669
428.397508	1.001108
428.775292	0.998967
429.153016	0.999781
429.530679	1.001713
429.908282	1.001585
430.285824	1.000693
430.663305	1.000228
431.040726	1.000478
431.418086	1.002274
431.795385	1.001285
432.172624	1.000748
432.549802	1.000923
432.926920	1.001032
433.303977	1.000717
433.680974	1.001380
434.057910	1.000614
434.434786	1.001373
434.811601	1.000439
435.188355	1.000319
435.565050	1.000155
435.941683	1.000598
436.318257	1.002108
436.694770	1.000204
437.071222	1.001429
437.447614	1.000951
437.823946	1.000695
438.200218	1.001482
438.576429	1.000379
438.952580	1.001651
439.328670	1.000348
439.704700	1.001368
440.080670	1.001060
440.456580	1.000410
440.832429	1.000470
441.208218	1.000947
441.583947	1.000827
441.959616	1.002081
442.335224	1.000216
442.710773	1.001987
443.086261	1.000619
443.461689	1.000949
443.837057	1.001081
444.212365	1.001200
444.587612	1.000441
444.962800	1.000223
445.337927	1.001897
445.712995	1.002061
446.088002	1.001189
446.462949	1.001759
446.837837	1.001767
447.212664	1.002126
447.587431	1.001804
447.962139	1.001014
448.336786	1.000453
448.711374	1.001171
449.085901	1.000421
449.460369	1.001623
449.834776	1.000349
450.209124	1.001215
450.583412	1.000522
450.957640	1.000906
451.331808	1.000275
451.705917	1.000529
452.079965	1.000131
452.453954	1.000521
452.827883	1.001229
453.201752	1.000883
453.575562	1.001577
453.949311	1.001338
454.323001	1.000599
454.696632	1.000661
455.070202	1.001334
455.443713	1.000549
455.817164	1.001215
456.190556	1.000926
456.563888	1.000531
456.937160	1.000819
457.310373	1.000325
457.683526	1.001711
458.056619	1.000760
458.429653	1.001323
458.802628	1.000135
459.175542	1.000646
459.548398	1.000471
459.921194	1.000614
460.293930	1.001116
460.666607	1.000390
461.039224	0.999607
461.411782	1.000687
461.784280	1.000127
462.156719	1.001514
462.529099	1.000530
462.901419	1.001052
463.273680	1.001155
463.645882	1.001084
464.018024	1.000989
464.390106	1.000716
464.762130	1.000968
465.134094	1.000888
465.505999	1.000927
465.877845	1.000628
466.249631	1.001141
466.621358	1.000183
466.993026	1.001040
467.364634	1.000734
467.736184	1.001345
468.107674	1.000845
468.479105	1.000376
468.850477	1.001292
469.221790	1.000748
469.593043	1.001315
469.964238	1.001572
470.335373	1.001142
470.706449	1.001190
471.077467	1.001904
471.448425	1.001146
471.819324	1.001526
472.190164	1.000212
472.560945	1.001075
472.931667	1.000773
473.302330	1.000951
473.672934	1.001341
474.043479	1.001187
474.413965	1.001107
474.784393	1.000914
475.154761	1.001043
475.525070	1.000268
475.895321	1.001238
476.265513	1.001123
476.635645	1.000387
477.005719	1.001479
477.375734	1.000677
477.745691	1.001073
478.115588	1.001303
478.485427	1.001186
478.855207	1.001369
479.224928	1.000928
479.594591	1.000804
479.964194	1.001214
480.333739	1.001032
480.703226	1.001152
481.072653	1.001360
481.442022	1.001304
481.811333	1.000410
482.180584	1.001490
482.549777	1.000818
482.918912	1.000803
483.287988	1.001217
483.657005	1.001356
484.025964	1.001399
484.394864	1.001137
484.763706	1.001520
485.132489	1.001963
485.501213	1.001530
485.869879	1.000998
486.238487	1.001246
486.607036	1.001360
486.975527	1.000246
487.343959	1.000686
487.712333	1.000766
488.080648	1.001151
488.448905	1.001544
488.817104	1.001365
489.185244	1.001538
489.553326	1.001049
489.921350	1.001001
490.289315	1.001327
490.657222	1.001707
491.025070	1.001346
491.392861	1.001787
491.760593	1.001249
492.128267	1.000749
492.495883	1.001632
492.863440	1.001076
493.230939	1.001619
493.598380	1.000847
493.965763	1.001437
494.333088	1.001421
494.700354	1.000386
495.067563	1.001459
495.434713	1.000996
495.801805	1.001919
496.168839	1.000652
496.535815	1.001141
496.902733	1.000871
497.269593	1.000975
497.636395	1.001292
498.003139	1.001187
498.369825	1.001115
498.736453	1.000484
499.103023	1.000476
499.469535	0.999856
499.835989	1.001009
500.202385	1.000932
500.568723	1.001660
500.935003	1.001520
501.301226	1.001479
501.667390	1.001561
502.033497	1.001118
502.399546	1.002527
502.765537	1.000330
503.131470	1.001023
503.497345	1.000556
503.863163	1.001465
504.228923	1.001243
504.594625	1.001428
504.960269	1.001476
505.325856	1.001246
505.691385	1.001487
506.056856	1.000822
506.422270	1.000970
506.787625	1.001282
507.152924	1.001413
507.518164	1.001203
507.883347	1.001101
508.248472	1.001049
508.613540	1.001850
508.978550	1.001461
509.343503	1.001005
509.708398	1.001170
510.073236	1.001335
510.438016	1.001987
510.802738	1.001037
511.167403	1.000982
511.532010	1.000959
511.896561	1.001014
512.261053	1.001977
512.625488	1.001290
512.989866	1.001005
513.354186	1.000753
513.718449	1.001362
514.082655	1.001123
514.446803	1.001220
514.810894	1.001847
515.174927	1.000516
515.538904	1.001096
515.902822	1.001379
516.266684	1.001866
516.630488	1.001112
516.994235	1.000941
517.357925	1.000890
517.721558	1.001392
518.085133	1.000384
518.448651	1.001926
518.812112	1.001476
519.175516	1.000577
519.538863	1.000957
519.902152	1.000896
520.265385	1.001006
520.628560	1.000929
520.991678	1.001059
521.354739	1.001354
521.717743	1.001180
522.080690	1.001725
522.443580	1.000614
522.806413	1.001220
523.169189	1.000629
523.531908	1.000846
523.894569	1.001282
524.257174	1.001652
524.619722	1.001410
524.982213	1.001212
525.344647	1.001915
525.707025	1.000714
526.069345	1.000020
526.431608	1.001100
526.793815	1.001522
527.155964	1.001186
527.518057	1.000806
527.880093	1.001461
528.242072	1.000978
528.603995	1.000920
528.965860	1.001773
529.327669	1.000730
529.689421	1.001117
530.051117	1.001864
530.412755	1.000685
530.774337	1.001286
531.135862	1.001255
531.497331	1.001200
531.858743	1.001315
532.220098	1.001474
532.581396	1.001734
532.942638	1.001653
533.303824	1.000837
533.664953	1.000948
534.026025	1.001314
534.387040	1.000910
534.747999	1.001268
535.108902	1.001308
535.469748	1.001245
535.830537	1.001437
536.191270	1.000665
536.551947	1.000616
536.912567	1.001390
537.273131	1.001356
537.633638	1.000363
537.994089	1.000850
538.354483	1.001208
538.714821	1.001752
539.075103	1.000514
539.435328	1.000730
539.795497	1.001208
540.155609	1.000563
540.515665	1.001094
540.875665	1.000743
541.235609	1.001385
541.595496	1.000685
541.955328	1.000721
542.315102	1.001353
542.674821	1.000964
543.034483	1.000856
543.394090	1.000546
543.753640	1.001889
544.113134	1.001216
544.472571	1.001199
544.831953	1.001100
545.191278	1.000703
545.550548	1.001616
545.909761	1.000710
546.268918	1.001113
546.628019	1.001325
546.987064	1.001062
547.346053	1.000997
547.704986	1.001325
548.063863	1.001869
548.422684	1.001480
548.781449	1.001893
549.140158	1.000902
549.498811	1.001537
549.857408	1.000993
550.215949	1.001303
550.574434	1.000814
550.932864	1.001526
551.291237	1.001677
551.649555	1.001754
552.007817	1.000910
552.366022	1.000906
552.724173	1.001797
553.082267	1.001979
553.440305	1.000800
553.798288	1.001330
554.156215	1.001364
554.514086	1.002310
554.871902	1.000740
555.229661	1.000950
555.587365	1.001928
555.945014	1.001832
556.302606	1.000751
556.660143	1.001382
557.017625	1.000901
557.375050	1.000631
557.732421	1.000810
558.089735	1.000873
558.446994	1.001731
558.804197	1.001211
559.161345	1.001644
559.518437	1.001308
559.875474	1.000828
560.232455	1.000953
560.589381	1.001773
560.946251	1.000118
561.303065	1.000672
561.659825	1.001543
562.016528	1.000812
562.373177	1.001186
562.729770	1.000492
563.086307	1.001121
563.442789	1.000835
563.799216	1.000976
564.155587	1.000089
564.511904	1.001042
564.868164	1.000825
565.224370	1.000950
565.580520	1.001235
565.936615	1.001130
566.292654	1.000641
566.648638	1.000735
567.004567	1.000529
567.360441	1.001380
567.716260	1.001820
568.072023	1.001564
568.427732	1.001084
568.783385	1.001878
569.138982	1.001404
569.494525	1.001116
569.850013	1.000340
570.205445	1.000623
570.560823	1.001245
570.916145	1.001368
571.271412	1.000711
571.626625	1.001275
571.981782	1.000688
572.336884	1.001988
572.691931	1.001442
573.046923	1.000099
573.401860	1.000585
573.756743	1.001474
574.111570	1.001379
574.466342	1.001378
574.821059	1.001317
575.175722	1.000725
575.530330	1.001346
575.884882	1.000455
576.239380	1.001726
576.593823	1.000929
576.948211	1.001016
577.302544	1.000275
577.656823	1.000544
578.011047	1.000883
578.365216	1.000761
578.719330	1.000660
579.073389	1.001101
579.427394	1.000741
579.781344	1.000888
580.135239	1.001001
580.489080	1.001008
580.842866	1.000975
581.196597	1.000707
581.550273	1.000838
581.903895	1.001162
582.257463	1.000407
582.610975	1.000101
582.964434	1.001221
583.317837	1.001605
583.671186	1.001069
584.024481	1.001238
584.377721	1.000841
584.730906	1.001569
585.084037	1.001113
585.437113	1.000249
585.790135	1.000733
586.143103	1.000257
586.496016	1.001789
586.848874	1.000860
587.201679	1.000683
587.554428	1.001048
587.907124	1.000302
588.259765	1.000714
588.612352	1.000928
588.964884	1.001391
589.317362	1.001252
589.669786	1.000660
590.022155	1.000773
590.374470	1.000667
590.726731	1.000338
591.078937	1.000602
591.431090	1.001265
591.783188	1.000108
592.135232	1.000763
592.487222	1.001014
592.839157	1.000743
593.191038	1.001342
593.542866	1.000561
593.894639	1.001417
594.246358	1.000959
594.598022	1.000427
594.949633	1.000663
595.301190	1.000937
595.652692	1.001383
596.004141	1.000890
596.355535	1.000650
596.706876	0.999856
597.058162	1.001128
597.409395	1.000794
597.760573	1.001317
598.111698	1.000724
598.462768	1.000394
598.813785	1.000903
599.164748	1.001222
599.515657	1.000646
599.866511	1.000682
600.217312	1.000096
600.568060	1.000484
600.918753	1.001065
601.269392	1.000812
601.619978	1.000989
601.970510	1.001241
602.320988	1.001117
602.671412	1.000082
603.021783	1.001377
603.372100	1.001803
603.722363	1.001385
604.072572	0.999984
604.422728	1.001165
604.772830	1.000538
605.122878	1.000127
605.472872	1.000664
605.822813	1.000211
606.172701	1.000804
606.522534	1.001546
606.872314	1.000590
607.222041	1.000571
607.571714	1.000922
607.921333	1.000236
608.270899	1.000188
608.620411	1.000500
608.969870	1.000432
609.319276	1.000634
609.668627	1.001555
610.017926	0.999861
610.367171	1.000061
610.716362	0.999724
611.065500	1.000041
611.414585	1.000734
611.763616	1.001554
612.112594	1.000221
612.461518	1.000870
612.810389	1.000668
613.159207	1.000505
613.507971	1.000002
613.856682	1.000816
614.205340	1.000840
614.553945	1.000265
614.902496	1.000467
615.250994	1.000508
615.599439	1.001140
615.947830	1.001098
616.296169	1.000051
616.644454	1.000600
616.992686	1.000864
617.340864	1.000365
617.688990	1.001037
618.037063	1.000720
618.385082	1.001049
618.733048	1.000784
619.080961	1.000640
619.428821	1.001422
619.776628	1.000410
620.124382	0.999746
620.472083	0.999694
620.819731	1.001214
621.167326	1.000282
621.514868	1.000156
621.862357	1.000477
622.209793	1.001042
622.557176	0.999362
622.904506	1.000484
623.251783	0.999573
623.599007	1.000298
623.946179	1.000808
624.293297	1.000566
624.640363	1.000507
624.987376	0.999671
625.334336	1.000464
625.681243	1.000192
626.028097	1.000732
626.374899	1.000648
626.721647	1.000498
627.068343	1.000870
627.414987	1.000815
627.761577	1.000737
628.108115	1.000473
628.454600	1.001338
628.801032	0.999882
629.147412	1.000544
629.493739	1.000146
629.840014	1.000101
630.186236	1.000158
630.532405	1.000203
630.878521	1.001203
631.224585	1.000345
631.570597	1.000194
631.916556	1.000005
632.262462	1.000845
632.608316	1.001218
632.954117	1.000253
633.299866	0.999729
633.645562	1.001243
633.991206	1.000521
634.336797	1.001408
634.682336	1.000550
635.027823	1.000305
635.373257	1.001074
635.718639	1.000753
636.063968	1.000288
636.409245	0.999979
636.754470	1.000602
637.099642	1.001093
637.444762	1.000786
637.789829	1.000095
638.134845	1.000558
638.479808	1.000510
638.824719	1.000688
639.169577	1.000037
639.514383	0.999765
639.859137	0.999559
640.203839	0.999974
640.548489	1.000082
640.893086	1.001068
641.237632	1.000604
641.582125	1.000476
641.926566	0.999821
642.270955	1.000387
642.615292	1.001342
642.959576	0.999802
643.303809	1.000903
643.647990	1.000351
643.992118	1.000020
644.336195	1.001201
644.680219	1.000402
645.024192	1.000403
645.368112	1.000123
645.711981	1.000174
646.055797	1.000298
646.399562	0.999228
646.743274	0.999328
647.086935	1.000293
647.430544	1.000040
647.774101	0.999635
648.117606	1.000417
648.461059	1.000339
648.804460	0.999951
649.147810	0.999861
649.491108	1.000687
649.834354	0.999815
650.177548	1.000874
650.520690	1.000462
650.863781	0.999982
651.206820	1.000562
651.549807	0.999747
651.892742	1.000565
652.235626	1.000065
652.578458	1.000789
652.921238	0.999878
653.263967	1.001256
653.606644	1.000840
653.949269	1.000189
654.291843	0.999724
654.634365	1.000662
654.976836	1.000460
655.319255	1.000620
655.661622	1.001330
656.003938	1.000967
656.346203	1.000321
656.688416	1.000063
657.030577	1.001454
657.372687	0.999817
657.714746	1.000985
658.056753	1.000287
658.398708	1.000529
658.740612	1.000629
659.082465	0.999909
659.424266	1.000414
659.766016	0.999562
660.107715	1.000404
660.449362	0.999588
660.790958	0.999905
661.132503	0.999530
661.473996	0.999860
661.815438	1.000492
662.156829	0.999980
662.498168	1.001727
662.839456	0.999292
663.180693	1.000580
663.521879	1.000813
663.863013	1.000553
664.204097	1.000241
664.545129	1.001178
664.886110	1.000269
665.227040	0.999839
665.567918	0.999719
665.908746	1.000191
666.249522	0.999922
666.590248	1.000170
666.930922	1.000416
667.271545	1.001231
667.612118	1.000239
667.952639	1.000355
668.293109	1.000134
668.633528	1.000735
668.973896	1.000214
669.314213	0.999357
669.654480	1.000433
669.994695	0.999916
670.334859	1.000741
670.674973	0.999716
671.015035	0.999716
671.355047	0.999818
671.695008	1.000388
672.034918	1.000122
672.374777	1.000316
672.714585	0.999891
673.054342	1.000252
673.394049	1.000049
673.733705	0.999241
674.073310	0.999832
674.412864	1.000043
674.752368	0.999994
675.091820	1.001703
675.431223	1.000263
675.770574	0.999594
676.109875	1.001416
676.449125	1.000779
676.788324	0.999960
677.127473	1.000774
677.466571	0.999744
677.805619	1.000038
678.144616	1.001009
678.483562	1.000530
678.822458	1.000429
679.161303	1.001414
679.500098	1.000000
679.838842	1.001608
680.177535	1.000696
680.516179	1.000089
680.854771	1.000895
681.193314	1.000666
681.531805	1.000182
681.870247	0.999753
682.208638	0.999228
682.546978	0.999398
682.885268	0.999829
683.223508	1.000164
683.561697	0.999485
683.899836	1.000515
684.237925	1.000419
684.575963	0.999883
684.913951	0.999925
685.251889	1.000970
685.589776	1.000068
685.927614	1.000030
686.265401	1.000023
686.603137	0.999895
686.940824	0.999977
687.278460	0.999830
687.616046	1.000111
687.953582	1.000123
688.291068	1.000475
688.628504	1.000676
