Dividing Wavelength (nm)	Counts (n)	Blue Motor Position (mm): 0.000000	Red Motor Position (mm): 46.600000	
326.493990	1.000925
326.888308	1.000925
327.282561	1.000925
327.676750	1.000748
328.070874	0.999601
328.464933	0.999509
328.858929	0.999762
329.252859	1.000041
329.646726	0.999280
330.040528	1.000127
330.434265	0.999998
330.827938	1.000764
331.221547	1.001189
331.615091	1.000196
332.008571	1.001448
332.401986	1.001913
332.795338	1.001469
333.188625	0.999462
333.581847	1.000061
333.975006	0.999523
334.368100	1.000634
334.761129	1.000821
335.154095	1.001831
335.546996	1.000088
335.939833	0.998765
336.332606	1.000269
336.725315	1.000519
337.117960	1.001757
337.510540	0.999760
337.903056	1.000722
338.295508	0.999191
338.687896	1.000118
339.080220	1.001168
339.472480	1.000373
339.864676	1.000178
340.256807	1.001463
340.648875	1.001294
341.040879	1.000955
341.432818	1.000895
341.824694	0.999184
342.216506	1.001610
342.608253	1.000222
342.999937	1.000048
343.391557	0.998974
343.783113	1.000123
344.174605	1.001390
344.566033	1.000632
344.957397	0.999863
345.348697	1.000416
345.739934	1.000759
346.131106	0.999581
346.522215	0.998831
346.913260	0.999986
347.304241	1.000441
347.695159	0.999587
348.086012	0.998818
348.476802	1.000043
348.867528	0.999650
349.258191	0.999973
349.648789	1.000985
350.039324	1.000297
350.429796	1.001023
350.820203	1.000825
351.210548	1.000861
351.600828	0.999741
351.991045	1.000259
352.381198	0.998788
352.771288	1.000294
353.161314	0.998837
353.551276	1.000723
353.941175	1.001053
354.331010	0.999659
354.720782	1.000137
355.110490	1.000595
355.500135	1.000981
355.889717	0.999462
356.279235	0.999814
356.668689	0.999084
357.058080	1.000602
357.447408	1.001037
357.836672	1.001269
358.225873	1.001162
358.615010	1.000235
359.004084	1.000644
359.393095	1.000807
359.782043	1.000630
360.170927	1.001926
360.559748	1.000783
360.948505	1.000244
361.337199	1.000433
361.725830	1.001167
362.114398	1.000919
362.502903	1.002106
362.891344	1.000837
363.279722	1.000380
363.668037	1.000733
364.056289	1.000311
364.444478	1.000751
364.832603	1.000619
365.220665	1.000130
365.608665	0.999374
365.996601	1.001184
366.384474	1.000553
366.772284	0.999838
367.160031	0.999987
367.547715	0.999001
367.935336	0.999213
368.322893	1.000977
368.710388	0.999122
369.097820	1.001199
369.485189	1.000424
369.872495	0.999013
370.259738	0.999465
370.646918	1.000371
371.034035	1.000770
371.421090	1.000955
371.808081	0.999947
372.195010	1.000096
372.581875	1.001259
372.968678	1.000059
373.355418	0.999748
373.742096	0.999728
374.128710	1.000888
374.515262	0.999955
374.901751	1.000022
375.288177	1.000585
375.674540	1.000726
376.060841	0.999593
376.447079	1.000118
376.833254	1.000913
377.219367	1.000857
377.605417	1.000053
377.991404	1.000315
378.377329	0.999380
378.763191	0.999496
379.148991	1.001209
379.534727	1.000698
379.920402	1.000433
380.306013	0.999578
380.691563	1.001567
381.077049	0.999128
381.462474	1.000920
381.847835	1.000903
382.233134	1.000504
382.618371	1.000678
383.003545	0.999644
383.388657	0.999760
383.773706	1.000730
384.158693	1.000438
384.543618	1.000083
384.928480	1.000748
385.313280	1.000723
385.698017	1.000204
386.082692	1.000080
386.467305	0.999813
386.851856	1.000091
387.236344	1.000311
387.620770	0.999436
388.005133	1.000867
388.389435	1.001340
388.773674	1.000232
389.157851	1.000476
389.541965	1.000463
389.926018	1.000387
390.310008	1.001492
390.693936	1.000159
391.077802	0.999686
391.461606	1.001184
391.845348	0.999987
392.229027	1.001070
392.612645	1.000619
392.996200	1.001372
393.379694	1.000718
393.763125	1.000918
394.146494	1.001429
394.529801	0.999553
394.913047	1.001155
395.296230	1.000936
395.679351	1.000771
396.062410	0.999641
396.445408	1.000967
396.828343	1.000557
397.211217	1.000348
397.594028	1.000841
397.976778	1.000257
398.359466	1.000544
398.742092	0.999509
399.124656	1.000344
399.507158	1.000534
399.889598	1.000309
400.271977	1.000990
400.654294	1.000708
401.036549	1.001136
401.418742	1.001485
401.800874	1.000076
402.182944	1.001111
402.564952	0.998562
402.946898	1.001414
403.328783	1.000002
403.710606	0.999988
404.092367	0.999763
404.474067	1.000674
404.855705	1.000910
405.237282	1.000294
405.618797	1.000610
406.000250	1.000026
406.381642	1.001442
406.762972	1.000461
407.144240	1.001032
407.525447	1.000458
407.906593	1.000919
408.287677	1.000842
408.668700	1.001490
409.049661	0.999321
409.430560	1.000413
409.811399	0.999700
410.192176	0.999922
410.572891	0.999775
410.953545	1.000508
411.334138	0.999771
411.714669	1.000495
412.095139	1.000178
412.475547	1.001630
412.855894	1.000667
413.236180	1.000298
413.616405	1.000942
413.996568	1.001097
414.376670	1.000169
414.756711	1.000464
415.136691	1.001269
415.516609	1.000509
415.896466	0.999862
416.276262	0.999319
416.655997	1.000518
417.035670	0.999630
417.415283	1.000630
417.794834	1.000102
418.174324	1.000095
418.553753	1.000661
418.933121	1.000700
419.312428	1.000730
419.691674	1.000990
420.070859	1.000766
420.449983	1.000135
420.829045	1.000236
421.208047	1.001432
421.586988	1.001410
421.965867	1.000328
422.344686	1.000885
422.723444	1.000976
423.102141	1.000999
423.480777	1.000336
423.859352	0.999934
424.237866	1.000645
424.616319	1.000489
424.994712	0.999821
425.373044	1.001141
425.751314	1.000584
426.129524	1.000026
426.507673	1.001148
426.885762	1.001390
427.263789	1.000213
427.641756	1.000843
428.019662	1.001654
428.397508	0.999731
428.775292	0.999801
429.153016	1.000076
429.530679	1.001182
429.908282	1.000946
430.285824	0.999684
430.663305	1.000332
431.040726	1.000337
431.418086	1.002089
431.795385	1.001173
432.172624	1.000144
432.549802	1.001174
432.926920	1.001047
433.303977	1.000089
433.680974	1.001230
434.057910	0.999909
434.434786	1.000894
434.811601	1.000685
435.188355	0.999976
435.565050	0.999912
435.941683	1.000739
436.318257	1.001320
436.694770	1.000323
437.071222	1.001726
437.447614	1.000974
437.823946	0.999928
438.200218	1.000882
438.576429	1.000220
438.952580	1.000804
439.328670	0.999399
439.704700	1.000933
440.080670	1.001051
440.456580	1.000359
440.832429	1.000544
441.208218	1.000148
441.583947	1.000735
441.959616	1.000846
442.335224	1.000737
442.710773	1.001727
443.086261	1.000420
443.461689	1.000447
443.837057	1.000720
444.212365	1.000719
444.587612	0.999792
444.962800	1.000216
445.337927	1.000796
445.712995	1.001224
446.088002	1.001789
446.462949	1.000984
446.837837	1.000720
447.212664	1.000610
447.587431	1.000233
447.962139	1.000084
448.336786	1.000985
448.711374	1.000794
449.085901	1.000683
449.460369	1.000084
449.834776	1.000322
450.209124	1.000875
450.583412	1.000125
450.957640	1.000694
451.331808	1.000227
451.705917	0.999974
452.079965	1.000359
452.453954	1.001031
452.827883	1.000141
453.201752	1.000873
453.575562	1.001017
453.949311	1.001280
454.323001	1.000388
454.696632	0.999981
455.070202	1.000880
455.443713	1.000330
455.817164	1.001412
456.190556	1.000725
456.563888	1.000428
456.937160	1.000454
457.310373	1.000320
457.683526	0.999865
458.056619	1.001062
458.429653	1.000859
458.802628	0.999980
459.175542	0.999470
459.548398	1.000832
459.921194	1.000374
460.293930	1.000449
460.666607	0.999268
461.039224	0.998949
461.411782	1.000291
461.784280	0.999614
462.156719	1.000771
462.529099	1.000510
462.901419	1.000686
463.273680	1.000039
463.645882	1.000315
464.018024	1.000537
464.390106	1.000463
464.762130	1.001272
465.134094	1.000074
465.505999	1.000182
465.877845	1.000123
466.249631	1.000463
466.621358	1.000467
466.993026	1.000734
467.364634	1.000445
467.736184	1.000675
468.107674	1.000109
468.479105	0.999467
468.850477	1.000737
469.221790	1.000694
469.593043	1.001208
469.964238	1.001427
470.335373	1.000458
470.706449	1.000984
471.077467	1.000809
471.448425	1.000549
471.819324	1.001041
472.190164	1.000425
472.560945	1.000565
472.931667	1.000215
473.302330	1.000572
473.672934	1.000429
474.043479	1.000676
474.413965	1.000539
474.784393	1.000946
475.154761	1.000363
475.525070	0.999689
475.895321	1.001024
476.265513	1.000766
476.635645	1.000539
477.005719	1.001465
477.375734	0.999919
477.745691	1.000465
478.115588	1.000198
478.485427	1.001090
478.855207	0.999998
479.224928	1.000748
479.594591	1.000502
479.964194	1.000630
480.333739	1.001465
480.703226	1.000265
481.072653	1.000911
481.442022	1.001230
481.811333	0.999985
482.180584	1.000928
482.549777	1.000325
482.918912	1.000345
483.287988	1.000981
483.657005	1.000576
484.025964	1.001121
484.394864	1.001006
484.763706	1.000960
485.132489	1.000937
485.501213	1.001035
485.869879	1.000495
486.238487	1.001293
486.607036	1.001225
486.975527	1.000481
487.343959	1.000590
487.712333	1.000778
488.080648	1.000785
488.448905	1.001181
488.817104	1.000444
489.185244	1.000684
489.553326	1.001073
489.921350	1.000544
490.289315	1.000618
490.657222	1.000545
491.025070	1.000660
491.392861	1.001723
491.760593	1.000914
492.128267	1.000630
492.495883	1.000714
492.863440	1.000718
493.230939	1.001747
493.598380	1.000858
493.965763	1.000918
494.333088	1.001324
494.700354	1.000284
495.067563	1.000745
495.434713	1.001077
495.801805	1.001162
496.168839	1.000959
496.535815	0.999717
496.902733	1.000536
497.269593	1.000489
497.636395	1.000856
498.003139	1.000390
498.369825	1.001617
498.736453	1.000549
499.103023	1.000180
499.469535	1.000297
499.835989	1.000563
500.202385	1.000810
500.568723	1.000860
500.935003	1.001477
501.301226	1.001392
501.667390	1.000824
502.033497	1.000770
502.399546	1.001268
502.765537	1.000159
503.131470	1.000892
503.497345	1.000107
503.863163	1.000999
504.228923	1.000151
504.594625	1.000478
504.960269	1.001311
505.325856	1.000741
505.691385	1.000558
506.056856	1.001079
506.422270	1.000199
506.787625	1.000252
507.152924	1.001272
507.518164	1.000221
507.883347	1.000955
508.248472	1.000793
508.613540	1.000469
508.978550	1.000875
509.343503	0.999884
509.708398	1.001033
510.073236	1.000682
510.438016	1.000825
510.802738	1.001220
511.167403	1.000986
511.532010	1.000864
511.896561	1.000527
512.261053	1.001242
512.625488	1.000322
512.989866	1.000130
513.354186	1.000703
513.718449	1.000566
514.082655	1.000750
514.446803	1.000727
514.810894	1.001156
515.174927	1.000836
515.538904	1.000785
515.902822	1.000784
516.266684	1.001197
516.630488	1.001273
516.994235	1.000380
517.357925	1.000784
517.721558	1.000886
518.085133	1.000243
518.448651	1.001744
518.812112	1.000662
519.175516	1.000450
519.538863	1.000887
519.902152	1.000928
520.265385	1.000517
520.628560	1.000890
520.991678	1.000904
521.354739	1.001041
521.717743	1.000924
522.080690	1.000600
522.443580	1.000391
522.806413	1.001095
523.169189	1.000474
523.531908	1.000453
523.894569	1.000411
524.257174	1.000812
524.619722	1.001411
524.982213	1.000911
525.344647	1.001018
525.707025	1.000125
526.069345	1.000650
526.431608	1.000460
526.793815	1.000642
527.155964	1.000196
527.518057	1.000871
527.880093	1.001263
528.242072	1.001036
528.603995	1.000598
528.965860	1.000971
529.327669	1.000556
529.689421	1.000786
530.051117	1.001365
530.412755	1.000977
530.774337	1.000739
531.135862	1.000649
531.497331	1.000766
531.858743	1.001044
532.220098	1.000578
532.581396	1.000979
532.942638	1.001595
533.303824	1.000511
533.664953	1.000408
534.026025	1.000363
534.387040	1.000599
534.747999	1.000627
535.108902	1.000632
535.469748	1.000418
535.830537	1.000892
536.191270	1.000779
536.551947	1.000370
536.912567	1.000922
537.273131	1.001222
537.633638	1.000253
537.994089	1.000819
538.354483	1.000493
538.714821	1.000369
539.075103	1.000860
539.435328	1.000065
539.795497	1.000602
540.155609	1.000390
540.515665	1.000875
540.875665	1.000128
541.235609	1.001021
541.595496	1.000334
541.955328	1.000548
542.315102	1.000882
542.674821	1.001005
543.034483	0.999971
543.394090	1.000047
543.753640	1.001013
544.113134	1.000817
544.472571	1.000693
544.831953	1.000854
545.191278	1.000519
545.550548	1.000921
545.909761	0.999890
546.268918	1.000353
546.628019	1.000936
546.987064	0.999795
547.346053	1.000708
547.704986	1.001221
548.063863	1.000728
548.422684	1.000004
548.781449	1.000875
549.140158	0.999915
549.498811	1.000235
549.857408	1.000666
550.215949	1.001206
550.574434	1.000530
550.932864	1.000714
551.291237	1.000757
551.649555	1.000465
552.007817	1.000302
552.366022	1.000284
552.724173	1.000417
553.082267	1.000612
553.440305	1.000223
553.798288	1.000486
554.156215	1.000242
554.514086	1.000693
554.871902	1.000597
555.229661	1.000967
555.587365	1.000703
555.945014	1.001025
556.302606	1.000208
556.660143	0.999936
557.017625	1.000803
557.375050	1.000758
557.732421	1.000255
558.089735	1.000642
558.446994	1.001173
558.804197	1.000807
559.161345	1.000577
559.518437	1.000984
559.875474	1.000032
560.232455	1.000141
560.589381	1.001342
560.946251	0.999414
561.303065	1.000246
561.659825	1.000555
562.016528	1.000347
562.373177	1.000604
562.729770	1.000712
563.086307	1.000528
563.442789	1.000255
563.799216	1.000499
564.155587	1.000129
564.511904	1.000077
564.868164	0.999400
565.224370	1.000138
565.580520	1.000491
565.936615	1.000301
566.292654	0.999892
566.648638	1.000100
567.004567	0.999423
567.360441	1.000318
567.716260	1.001179
568.072023	1.000163
568.427732	1.000432
568.783385	1.000242
569.138982	1.000393
569.494525	0.999420
569.850013	1.000132
570.205445	1.000279
570.560823	1.000470
570.916145	0.999537
571.271412	1.000431
571.626625	1.000049
571.981782	1.000118
572.336884	1.001003
572.691931	1.000350
573.046923	0.999844
573.401860	1.000047
573.756743	1.000445
574.111570	1.000917
574.466342	1.000641
574.821059	1.000744
575.175722	1.000602
575.530330	1.000707
575.884882	1.000332
576.239380	1.000451
576.593823	1.000253
576.948211	1.000030
577.302544	1.000261
577.656823	1.000005
578.011047	0.999994
578.365216	1.000112
578.719330	1.000437
579.073389	1.001174
579.427394	1.000480
579.781344	1.000157
580.135239	1.000539
580.489080	0.999764
580.842866	1.000066
581.196597	0.999653
581.550273	1.000034
581.903895	1.000081
582.257463	0.999569
582.610975	1.000345
582.964434	1.000292
583.317837	1.001396
583.671186	1.000105
584.024481	1.000302
584.377721	1.000161
584.730906	1.000548
585.084037	1.000228
585.437113	1.000316
585.790135	1.000099
586.143103	1.000054
586.496016	1.000923
586.848874	1.000674
587.201679	0.999591
587.554428	1.000555
587.907124	1.000314
588.259765	1.000474
588.612352	1.000910
588.964884	0.999825
589.317362	1.001093
589.669786	1.000677
590.022155	1.000371
590.374470	1.000280
590.726731	1.000515
591.078937	0.999554
591.431090	1.000150
591.783188	0.999580
592.135232	1.000758
592.487222	1.000730
592.839157	1.000330
593.191038	1.000858
593.542866	0.999778
593.894639	1.000173
594.246358	0.999744
594.598022	1.000547
594.949633	0.999996
595.301190	0.999783
595.652692	1.000536
596.004141	1.001274
596.355535	0.999381
596.706876	0.999449
597.058162	1.000163
597.409395	1.000636
597.760573	0.999830
598.111698	0.999708
598.462768	1.000096
598.813785	0.999721
599.164748	0.999712
599.515657	0.999629
599.866511	1.000238
600.217312	0.999646
600.568060	1.000382
600.918753	1.000717
601.269392	1.000303
601.619978	0.999903
601.970510	1.000032
602.320988	0.999971
602.671412	0.999750
603.021783	0.999953
603.372100	1.001220
603.722363	1.000702
604.072572	1.000131
604.422728	1.000644
604.772830	0.999947
605.122878	1.000001
605.472872	1.000194
605.822813	1.000019
606.172701	0.999928
606.522534	1.000681
606.872314	1.000495
607.222041	1.000076
607.571714	1.000424
607.921333	0.999286
608.270899	0.999921
608.620411	0.999649
608.969870	1.000614
609.319276	0.999916
609.668627	1.000623
610.017926	0.999707
610.367171	0.999956
610.716362	0.999735
611.065500	0.999937
611.414585	0.999477
611.763616	1.000248
612.112594	0.999427
612.461518	0.999651
612.810389	0.999764
613.159207	1.000598
613.507971	0.999561
613.856682	1.000187
614.205340	1.000342
614.553945	0.999532
614.902496	0.999541
615.250994	1.000032
615.599439	1.000159
615.947830	0.999534
616.296169	0.999762
616.644454	0.998858
616.992686	0.999404
617.340864	0.999583
617.688990	1.000026
618.037063	1.000299
618.385082	1.000021
618.733048	0.999992
619.080961	1.000048
619.428821	1.000305
619.776628	0.999589
620.124382	0.999567
620.472083	0.998900
620.819731	1.000214
621.167326	0.999956
621.514868	0.999815
621.862357	0.999791
622.209793	1.000743
622.557176	0.998966
622.904506	0.999135
623.251783	0.999706
623.599007	0.999547
623.946179	1.000350
624.293297	0.999875
624.640363	0.999989
624.987376	0.998984
625.334336	0.999591
625.681243	0.999781
626.028097	1.000146
626.374899	1.000049
626.721647	0.999986
627.068343	1.000267
627.414987	0.999841
627.761577	0.999309
628.108115	1.000095
628.454600	1.000623
628.801032	0.999672
629.147412	0.999906
629.493739	0.999680
629.840014	0.999685
630.186236	1.000174
630.532405	0.999793
630.878521	0.999936
631.224585	0.999867
631.570597	1.000012
631.916556	0.999509
632.262462	1.000065
632.608316	1.000242
632.954117	0.999358
633.299866	0.999928
633.645562	1.000465
633.991206	0.999900
634.336797	1.000010
634.682336	1.000378
635.027823	1.000266
635.373257	1.000396
635.718639	0.999928
636.063968	0.999557
636.409245	0.999486
636.754470	0.999438
637.099642	1.000678
637.444762	0.999881
637.789829	0.999497
638.134845	1.000403
638.479808	0.999626
638.824719	0.999800
639.169577	0.999622
639.514383	1.000402
639.859137	0.999843
640.203839	1.000121
640.548489	0.998818
640.893086	0.999706
641.237632	1.000102
641.582125	0.999615
641.926566	0.999658
642.270955	1.000057
642.615292	0.999954
642.959576	1.000001
643.303809	1.000167
643.647990	0.999805
643.992118	0.999395
644.336195	1.000441
644.680219	0.999867
645.024192	0.999891
645.368112	0.999064
645.711981	0.999691
646.055797	0.999741
646.399562	0.999750
646.743274	0.998249
647.086935	0.999724
647.430544	0.999052
647.774101	0.999993
648.117606	0.999547
648.461059	0.998819
648.804460	0.997694
649.147810	0.998801
649.491108	1.000561
649.834354	0.999313
650.177548	0.999992
650.520690	1.000454
650.863781	0.999273
651.206820	1.000045
651.549807	1.000020
651.892742	0.999735
652.235626	1.000003
652.578458	1.000371
652.921238	0.999208
653.263967	1.000290
653.606644	1.000642
653.949269	0.998925
654.291843	0.999483
654.634365	0.999411
654.976836	1.000102
655.319255	0.999779
655.661622	1.000669
656.003938	0.999166
656.346203	0.999559
656.688416	0.999504
657.030577	1.000326
657.372687	0.998964
657.714746	0.998709
658.056753	0.999532
658.398708	1.000013
658.740612	1.001199
659.082465	1.000183
659.424266	0.999779
659.766016	0.999039
660.107715	0.999135
660.449362	0.999659
660.790958	0.998980
661.132503	0.998730
661.473996	0.999294
661.815438	0.999407
662.156829	0.999128
662.498168	0.999635
662.839456	0.999039
663.180693	1.000049
663.521879	0.999463
663.863013	1.000657
664.204097	0.999878
664.545129	1.000136
664.886110	1.000192
665.227040	0.999338
665.567918	0.999839
665.908746	0.998693
666.249522	0.999157
666.590248	0.999293
666.930922	0.999776
667.271545	0.998746
667.612118	0.999943
667.952639	0.998722
668.293109	0.998551
668.633528	0.998985
668.973896	0.999341
669.314213	0.998445
669.654480	0.999306
669.994695	0.999569
670.334859	0.999177
670.674973	0.999144
671.015035	0.999469
671.355047	0.998706
671.695008	0.999192
672.034918	0.999503
672.374777	0.999592
672.714585	0.999613
673.054342	0.999269
673.394049	0.999073
673.733705	0.998727
674.073310	0.998885
674.412864	1.000108
674.752368	0.999377
675.091820	1.000737
675.431223	0.999652
675.770574	0.999187
676.109875	0.998560
676.449125	0.999217
676.788324	0.998250
677.127473	0.999525
677.466571	0.999248
677.805619	0.999282
678.144616	0.999069
678.483562	0.998893
678.822458	0.999086
679.161303	0.999856
679.500098	0.999482
679.838842	0.999832
680.177535	0.999321
680.516179	0.998779
680.854771	0.999631
681.193314	1.000122
681.531805	0.999048
681.870247	0.998368
682.208638	0.998482
682.546978	0.998038
682.885268	0.998901
683.223508	0.998930
683.561697	0.998339
683.899836	0.998671
684.237925	0.999820
684.575963	0.998662
684.913951	0.998661
685.251889	0.999297
685.589776	0.998913
685.927614	0.999045
686.265401	0.998067
686.603137	0.998460
686.940824	0.997715
687.278460	0.997807
687.616046	0.997682
687.953582	0.996889
688.291068	0.998215
688.628504	0.998656
