Dividing Wavelength (nm)	Counts (n)	Blue Motor Position (mm): 0.000000	Red Motor Position (mm): 49.800000	
326.493990	1.001222
326.888308	1.001222
327.282561	1.001222
327.676750	1.000445
328.070874	0.999112
328.464933	0.999383
328.858929	1.000275
329.252859	0.998716
329.646726	1.000138
330.040528	1.000462
330.434265	0.998841
330.827938	1.001714
331.221547	1.000233
331.615091	0.999619
332.008571	1.000465
332.401986	1.000322
332.795338	1.001212
333.188625	0.998610
333.581847	0.999863
333.975006	1.000206
334.368100	1.000544
334.761129	1.000065
335.154095	1.000893
335.546996	0.999685
335.939833	0.998443
336.332606	1.000119
336.725315	1.000639
337.117960	1.001030
337.510540	0.999714
337.903056	1.000467
338.295508	0.999375
338.687896	0.999863
339.080220	1.000771
339.472480	1.001193
339.864676	0.999764
340.256807	1.000581
340.648875	1.001638
341.040879	1.000077
341.432818	0.999916
341.824694	0.999539
342.216506	1.002002
342.608253	1.001346
342.999937	0.999672
343.391557	1.000453
343.783113	0.999634
344.174605	1.001854
344.566033	1.001352
344.957397	0.999762
345.348697	1.001344
345.739934	0.999470
346.131106	1.000499
346.522215	0.999365
346.913260	1.000586
347.304241	1.000144
347.695159	0.998078
348.086012	0.999287
348.476802	1.000018
348.867528	1.000500
349.258191	0.999056
349.648789	1.000883
350.039324	0.999455
350.429796	1.000630
350.820203	0.999737
351.210548	1.000450
351.600828	0.998520
351.991045	1.000983
352.381198	0.998567
352.771288	1.001539
353.161314	0.999807
353.551276	1.000419
353.941175	1.000290
354.331010	0.999551
354.720782	1.000938
355.110490	0.999327
355.500135	1.000686
355.889717	0.999908
356.279235	0.999541
356.668689	0.999054
357.058080	1.000373
357.447408	0.999863
357.836672	1.000491
358.225873	1.001377
358.615010	1.001227
359.004084	1.001506
359.393095	1.000643
359.782043	0.999971
360.170927	1.000968
360.559748	1.000809
360.948505	0.999995
361.337199	1.000149
361.725830	0.999848
362.114398	1.000074
362.502903	1.000763
362.891344	1.001409
363.279722	0.999654
363.668037	1.000969
364.056289	0.999713
364.444478	1.002081
364.832603	1.000191
365.220665	1.000463
365.608665	1.000017
365.996601	0.998809
366.384474	1.000618
366.772284	0.999700
367.160031	0.998921
367.547715	0.998376
367.935336	1.001216
368.322893	0.999641
368.710388	0.999497
369.097820	0.999712
369.485189	0.999356
369.872495	0.999723
370.259738	0.998299
370.646918	0.999829
371.034035	1.000939
371.421090	0.999852
371.808081	0.999651
372.195010	1.001409
372.581875	1.000085
372.968678	0.999301
373.355418	0.999651
373.742096	0.999955
374.128710	1.001354
374.515262	0.999532
374.901751	1.000102
375.288177	1.000339
375.674540	1.000626
376.060841	0.999389
376.447079	1.000983
376.833254	0.999691
377.219367	0.999719
377.605417	1.000837
377.991404	1.001302
378.377329	0.999230
378.763191	1.000953
379.148991	1.000508
379.534727	0.999819
379.920402	1.000577
380.306013	1.000019
380.691563	1.001379
381.077049	1.000210
381.462474	1.000525
381.847835	1.000902
382.233134	1.000492
382.618371	1.000835
383.003545	0.999891
383.388657	0.999594
383.773706	1.000528
384.158693	0.999501
384.543618	1.000697
384.928480	1.000979
385.313280	1.000624
385.698017	1.001513
386.082692	1.001069
386.467305	1.000995
386.851856	0.999845
387.236344	1.000432
387.620770	0.999654
388.005133	1.000849
388.389435	1.000940
388.773674	1.000499
389.157851	1.000139
389.541965	1.000301
389.926018	0.999943
390.310008	1.000880
390.693936	1.000313
391.077802	1.000846
391.461606	1.000094
391.845348	1.000203
392.229027	1.001674
392.612645	1.000661
392.996200	1.001273
393.379694	0.999724
393.763125	1.000280
394.146494	1.001271
394.529801	1.000374
394.913047	1.000681
395.296230	1.000283
395.679351	1.000134
396.062410	1.000538
396.445408	1.000431
396.828343	1.000310
397.211217	1.000539
397.594028	1.001357
397.976778	1.000271
398.359466	1.000679
398.742092	1.000744
399.124656	1.000560
399.507158	1.000761
399.889598	1.000889
400.271977	1.001215
400.654294	1.000618
401.036549	1.001191
401.418742	1.001854
401.800874	1.000775
402.182944	1.000890
402.564952	0.999770
402.946898	1.001463
403.328783	1.001088
403.710606	1.000789
404.092367	1.001269
404.474067	1.001155
404.855705	1.001210
405.237282	1.001048
405.618797	1.000440
406.000250	1.000722
406.381642	1.001288
406.762972	1.000573
407.144240	1.002032
407.525447	1.001363
407.906593	1.001277
408.287677	1.000674
408.668700	1.000876
409.049661	1.000372
409.430560	1.000672
409.811399	1.000512
410.192176	1.000868
410.572891	1.000454
410.953545	1.001378
411.334138	0.999400
411.714669	1.000854
412.095139	1.000925
412.475547	1.001162
412.855894	1.000887
413.236180	1.001013
413.616405	1.001445
413.996568	1.000809
414.376670	1.000274
414.756711	1.000652
415.136691	1.001118
415.516609	1.000612
415.896466	0.999865
416.276262	1.000199
416.655997	1.000320
417.035670	0.999956
417.415283	0.999656
417.794834	1.000713
418.174324	1.000914
418.553753	1.001039
418.933121	1.000776
419.312428	1.001106
419.691674	1.000096
420.070859	1.001056
420.449983	1.001545
420.829045	1.001178
421.208047	1.001414
421.586988	1.001587
421.965867	1.000943
422.344686	1.001729
422.723444	1.000717
423.102141	1.001284
423.480777	1.000961
423.859352	1.000692
424.237866	1.000599
424.616319	1.001265
424.994712	1.000780
425.373044	1.001251
425.751314	1.000283
426.129524	1.001118
426.507673	1.000521
426.885762	1.001484
427.263789	1.001186
427.641756	1.001141
428.019662	1.001266
428.397508	1.000763
428.775292	1.000252
429.153016	1.001282
429.530679	1.001166
429.908282	1.001410
430.285824	1.000707
430.663305	1.000507
431.040726	1.000201
431.418086	1.002271
431.795385	1.002387
432.172624	1.001038
432.549802	1.001072
432.926920	1.000672
433.303977	1.001112
433.680974	1.001087
434.057910	1.001095
434.434786	1.001046
434.811601	1.000506
435.188355	1.000253
435.565050	1.000559
435.941683	1.000190
436.318257	1.002127
436.694770	1.000414
437.071222	1.001228
437.447614	1.000786
437.823946	1.001487
438.200218	1.000451
438.576429	1.001576
438.952580	1.001402
439.328670	1.000287
439.704700	1.001259
440.080670	1.000425
440.456580	1.000665
440.832429	1.000580
441.208218	1.001413
441.583947	1.000708
441.959616	1.001728
442.335224	1.001272
442.710773	1.001714
443.086261	1.000660
443.461689	1.001202
443.837057	1.000342
444.212365	1.001358
444.587612	1.000737
444.962800	1.000350
445.337927	1.000417
445.712995	1.000798
446.088002	1.001235
446.462949	1.001201
446.837837	1.001344
447.212664	1.001369
447.587431	1.001629
447.962139	1.000130
448.336786	1.000845
448.711374	1.001233
449.085901	1.000728
449.460369	1.001346
449.834776	1.000997
450.209124	1.001340
450.583412	1.001203
450.957640	1.001101
451.331808	1.000530
451.705917	1.001227
452.079965	1.000641
452.453954	1.001418
452.827883	1.000884
453.201752	1.001158
453.575562	1.002339
453.949311	1.000873
454.323001	1.000987
454.696632	1.001186
455.070202	1.000855
455.443713	1.000634
455.817164	1.000657
456.190556	1.001510
456.563888	1.000974
456.937160	1.001472
457.310373	1.000405
457.683526	1.001381
458.056619	1.000891
458.429653	1.001562
458.802628	1.000579
459.175542	1.000005
459.548398	1.001747
459.921194	1.000798
460.293930	1.000827
460.666607	1.000345
461.039224	1.000038
461.411782	1.001015
461.784280	1.000653
462.156719	1.001287
462.529099	1.000635
462.901419	1.001085
463.273680	1.000970
463.645882	1.000946
464.018024	1.001610
464.390106	1.001360
464.762130	1.001837
465.134094	1.000944
465.505999	1.001310
465.877845	1.000769
466.249631	1.001242
466.621358	1.001290
466.993026	1.001499
467.364634	1.001463
467.736184	1.001482
468.107674	1.001647
468.479105	1.000195
468.850477	1.001423
469.221790	1.001806
469.593043	1.001121
469.964238	1.002016
470.335373	1.000969
470.706449	1.001095
471.077467	1.001335
471.448425	1.000852
471.819324	1.001550
472.190164	1.000965
472.560945	1.001640
472.931667	1.001233
473.302330	1.001154
473.672934	1.001669
474.043479	1.001454
474.413965	1.001263
474.784393	1.001867
475.154761	1.001299
475.525070	1.000451
475.895321	1.001213
476.265513	1.000865
476.635645	1.001368
477.005719	1.001278
477.375734	1.001003
477.745691	1.001459
478.115588	1.001379
478.485427	1.001176
478.855207	1.000936
479.224928	1.001145
479.594591	1.001178
479.964194	1.001383
480.333739	1.000894
480.703226	1.001460
481.072653	1.002202
481.442022	1.001584
481.811333	1.000579
482.180584	1.001454
482.549777	1.000949
482.918912	1.001377
483.287988	1.001844
483.657005	1.001068
484.025964	1.001816
484.394864	1.002038
484.763706	1.001292
485.132489	1.001365
485.501213	1.001096
485.869879	1.001561
486.238487	1.001214
486.607036	1.001270
486.975527	1.000602
487.343959	1.001363
487.712333	1.000740
488.080648	1.000799
488.448905	1.001390
488.817104	1.001524
489.185244	1.001654
489.553326	1.001194
489.921350	1.001255
490.289315	1.000986
490.657222	1.001750
491.025070	1.001393
491.392861	1.001551
491.760593	1.001856
492.128267	1.001114
492.495883	1.000749
492.863440	1.001107
493.230939	1.002110
493.598380	1.001221
493.965763	1.001327
494.333088	1.001061
494.700354	1.000994
495.067563	1.000840
495.434713	1.001438
495.801805	1.001251
496.168839	1.001167
496.535815	1.000898
496.902733	1.001361
497.269593	1.000996
497.636395	1.000940
498.003139	1.000488
498.369825	1.001830
498.736453	1.001081
499.103023	1.000972
499.469535	1.001139
499.835989	1.001637
500.202385	1.001096
500.568723	1.001041
500.935003	1.001373
501.301226	1.001522
501.667390	1.001022
502.033497	1.001165
502.399546	1.001791
502.765537	1.000970
503.131470	1.001070
503.497345	1.001352
503.863163	1.001962
504.228923	1.001006
504.594625	1.001235
504.960269	1.001607
505.325856	1.001505
505.691385	1.001441
506.056856	1.000608
506.422270	1.001485
506.787625	1.001241
507.152924	1.001270
507.518164	1.000528
507.883347	1.001176
508.248472	1.001362
508.613540	1.001603
508.978550	1.001164
509.343503	1.000678
509.708398	1.001161
510.073236	1.001399
510.438016	1.002198
510.802738	1.000833
511.167403	1.000980
511.532010	1.001323
511.896561	1.001296
512.261053	1.001993
512.625488	1.000761
512.989866	1.001489
513.354186	1.000765
513.718449	1.000995
514.082655	1.001599
514.446803	1.001166
514.810894	1.001266
515.174927	1.001276
515.538904	1.001408
515.902822	1.001093
516.266684	1.001165
516.630488	1.001917
516.994235	1.000572
517.357925	1.001287
517.721558	1.001366
518.085133	1.000508
518.448651	1.002104
518.812112	1.000981
519.175516	1.000510
519.538863	1.001465
519.902152	1.000792
520.265385	1.001116
520.628560	1.001427
520.991678	1.001431
521.354739	1.001401
521.717743	1.001777
522.080690	1.002104
522.443580	1.001204
522.806413	1.001436
523.169189	1.001408
523.531908	1.000226
523.894569	1.001139
524.257174	1.001439
524.619722	1.001419
524.982213	1.001365
525.344647	1.001439
525.707025	1.000838
526.069345	1.000967
526.431608	1.000924
526.793815	1.001809
527.155964	1.001449
527.518057	1.002046
527.880093	1.001239
528.242072	1.001068
528.603995	1.000972
528.965860	1.002006
529.327669	1.001456
529.689421	1.000888
530.051117	1.001176
530.412755	1.001399
530.774337	1.001411
531.135862	1.001273
531.497331	1.001372
531.858743	1.001580
532.220098	1.001639
532.581396	1.001870
532.942638	1.001542
533.303824	1.000968
533.664953	1.002004
534.026025	1.001126
534.387040	1.000986
534.747999	1.001268
535.108902	1.001574
535.469748	1.000903
535.830537	1.001036
536.191270	1.001506
536.551947	1.001630
536.912567	1.001180
537.273131	1.002304
537.633638	1.001006
537.994089	1.000638
538.354483	1.000833
538.714821	1.001205
539.075103	1.000880
539.435328	1.001471
539.795497	1.001775
540.155609	1.000093
540.515665	1.001254
540.875665	1.000729
541.235609	1.001876
541.595496	1.001090
541.955328	1.000972
542.315102	1.001224
542.674821	1.001072
543.034483	1.000498
543.394090	1.001051
543.753640	1.001292
544.113134	1.001364
544.472571	1.001734
544.831953	1.002257
545.191278	1.001260
545.550548	1.001868
545.909761	1.000331
546.268918	1.001456
546.628019	1.001562
546.987064	1.000408
547.346053	1.000712
547.704986	1.001763
548.063863	1.001027
548.422684	1.001682
548.781449	1.001929
549.140158	1.001193
549.498811	1.001639
549.857408	1.001139
550.215949	1.001514
550.574434	1.000862
550.932864	1.000905
551.291237	1.001906
551.649555	1.001281
552.007817	1.001036
552.366022	1.001523
552.724173	1.001512
553.082267	1.001605
553.440305	1.000879
553.798288	1.001324
554.156215	1.001233
554.514086	1.001537
554.871902	1.001031
555.229661	1.001247
555.587365	1.001178
555.945014	1.001982
556.302606	1.001320
556.660143	1.000868
557.017625	1.000871
557.375050	1.001136
557.732421	1.001042
558.089735	1.001449
558.446994	1.002403
558.804197	1.001432
559.161345	1.001165
559.518437	1.001849
559.875474	1.000972
560.232455	1.000781
560.589381	1.001358
560.946251	1.000763
561.303065	1.001500
561.659825	1.000785
562.016528	1.001071
562.373177	1.000745
562.729770	1.000889
563.086307	1.001134
563.442789	1.001238
563.799216	1.001335
564.155587	1.000897
564.511904	1.000975
564.868164	1.000466
565.224370	1.001274
565.580520	1.000848
565.936615	1.001068
566.292654	1.000961
566.648638	1.001184
567.004567	1.000747
567.360441	1.001606
567.716260	1.001329
568.072023	1.000765
568.427732	1.000936
568.783385	1.001525
569.138982	1.001080
569.494525	1.000978
569.850013	1.001402
570.205445	1.000861
570.560823	1.001003
570.916145	1.000663
571.271412	1.001392
571.626625	1.001074
571.981782	1.001037
572.336884	1.001306
572.691931	1.001524
573.046923	1.000853
573.401860	1.001375
573.756743	1.001235
574.111570	1.001116
574.466342	1.001558
574.821059	1.001522
575.175722	1.001568
575.530330	1.001184
575.884882	1.000690
576.239380	1.001267
576.593823	1.001016
576.948211	1.000607
577.302544	1.001210
577.656823	1.000552
578.011047	1.001173
578.365216	1.000788
578.719330	1.000948
579.073389	1.001381
579.427394	1.000990
579.781344	1.001361
580.135239	1.002034
580.489080	1.000524
580.842866	1.001117
581.196597	1.001176
581.550273	1.000178
581.903895	1.001076
582.257463	1.000215
582.610975	1.001623
582.964434	1.001153
583.317837	1.001967
583.671186	1.001239
584.024481	1.000567
584.377721	1.001103
584.730906	1.000800
585.084037	1.001108
585.437113	1.001223
585.790135	1.001047
586.143103	1.000438
586.496016	1.001508
586.848874	1.001426
587.201679	1.001064
587.554428	1.002008
587.907124	1.001164
588.259765	1.000753
588.612352	1.001553
588.964884	1.001375
589.317362	1.001122
589.669786	1.001500
590.022155	1.001439
590.374470	1.000885
590.726731	1.000645
591.078937	1.000819
591.431090	0.999558
591.783188	1.000667
592.135232	1.002304
592.487222	1.001424
592.839157	1.000399
593.191038	1.001519
593.542866	1.000922
593.894639	1.002189
594.246358	1.000441
594.598022	1.000858
594.949633	1.000986
595.301190	1.000802
595.652692	1.001456
596.004141	1.001518
596.355535	1.001033
596.706876	1.000543
597.058162	1.001378
597.409395	1.000734
597.760573	1.000181
598.111698	1.001003
598.462768	1.000410
598.813785	0.999739
599.164748	1.001430
599.515657	1.000123
599.866511	1.000904
600.217312	1.001050
600.568060	1.001534
600.918753	1.001098
601.269392	1.000963
601.619978	1.000935
601.970510	1.001197
602.320988	1.001099
602.671412	1.000943
603.021783	1.001530
603.372100	1.002168
603.722363	1.001139
604.072572	1.000734
604.422728	1.001087
604.772830	1.001100
605.122878	1.001275
605.472872	1.000943
605.822813	1.000518
606.172701	1.000775
606.522534	1.001560
606.872314	1.001205
607.222041	1.000500
607.571714	1.001536
607.921333	1.000189
608.270899	1.000708
608.620411	1.000836
608.969870	1.000988
609.319276	1.000297
609.668627	1.000995
610.017926	1.000466
610.367171	1.000805
610.716362	1.000430
611.065500	1.000746
611.414585	1.000642
611.763616	1.001259
612.112594	1.000828
612.461518	1.000382
612.810389	1.000830
613.159207	1.000864
613.507971	1.000987
613.856682	1.001356
614.205340	1.001050
614.553945	1.000295
614.902496	1.000812
615.250994	1.000595
615.599439	1.000979
615.947830	1.000804
616.296169	1.000747
616.644454	1.000406
616.992686	1.000546
617.340864	0.999764
617.688990	1.001269
618.037063	1.000866
618.385082	1.000450
618.733048	1.000497
619.080961	1.001412
619.428821	1.000988
619.776628	1.000144
620.124382	1.000075
620.472083	0.999944
620.819731	1.001552
621.167326	1.001399
621.514868	1.000264
621.862357	1.000924
622.209793	1.001381
622.557176	0.999596
622.904506	1.000714
623.251783	0.999931
623.599007	1.001037
623.946179	1.000892
624.293297	1.000868
624.640363	1.000464
624.987376	0.999828
625.334336	1.000672
625.681243	1.000298
626.028097	1.001326
626.374899	1.000727
626.721647	1.000593
627.068343	1.001069
627.414987	1.000866
627.761577	1.000905
628.108115	0.999688
628.454600	1.000249
628.801032	1.000910
629.147412	1.001245
629.493739	1.000511
629.840014	1.000722
630.186236	1.000876
630.532405	1.000802
630.878521	1.000306
631.224585	1.000679
631.570597	1.000435
631.916556	1.000429
632.262462	1.001103
632.608316	1.000576
632.954117	1.000845
633.299866	0.999864
633.645562	1.000434
633.991206	1.000527
634.336797	1.000941
634.682336	1.001298
635.027823	1.000848
635.373257	1.000484
635.718639	1.000963
636.063968	1.000536
636.409245	1.000565
636.754470	1.000359
637.099642	1.000711
637.444762	1.000744
637.789829	1.000639
638.134845	1.000079
638.479808	1.000735
638.824719	1.001147
639.169577	0.999639
639.514383	1.000307
639.859137	1.000041
640.203839	1.000322
640.548489	1.000058
640.893086	1.000123
641.237632	1.000642
641.582125	1.000146
641.926566	0.998829
642.270955	1.000941
642.615292	1.000558
642.959576	1.000573
643.303809	1.000344
643.647990	1.000420
643.992118	1.000603
644.336195	1.000867
644.680219	1.000806
645.024192	1.001108
645.368112	0.999394
645.711981	1.001156
646.055797	1.000279
646.399562	0.999840
646.743274	0.998602
647.086935	1.000597
647.430544	1.000549
647.774101	1.000653
648.117606	1.000126
648.461059	0.999763
648.804460	1.000144
649.147810	1.000039
649.491108	1.000733
649.834354	1.000020
650.177548	1.000874
650.520690	1.000182
650.863781	1.000565
651.206820	1.000529
651.549807	1.000932
651.892742	1.000651
652.235626	1.000364
652.578458	1.000270
652.921238	1.000300
653.263967	1.001435
653.606644	1.000731
653.949269	0.999850
654.291843	1.000701
654.634365	1.000144
654.976836	1.000640
655.319255	1.000419
655.661622	1.000627
656.003938	0.999991
656.346203	1.000512
656.688416	1.000789
657.030577	1.000228
657.372687	0.999843
657.714746	1.000139
658.056753	1.000009
658.398708	1.000858
658.740612	1.000619
659.082465	1.000801
659.424266	1.000640
659.766016	0.999369
660.107715	1.000498
660.449362	1.000000
660.790958	0.999545
661.132503	0.999658
661.473996	1.000031
661.815438	0.999970
662.156829	0.999847
662.498168	1.000306
662.839456	0.999996
663.180693	1.000975
663.521879	1.000678
663.863013	1.000388
664.204097	1.000046
664.545129	1.000349
664.886110	1.000583
665.227040	1.000282
665.567918	0.999209
665.908746	1.000435
666.249522	0.999867
666.590248	0.999721
666.930922	0.999835
667.271545	1.000374
667.612118	1.000656
667.952639	0.999868
668.293109	1.000937
668.633528	1.000513
668.973896	0.999740
669.314213	0.999642
669.654480	1.000185
669.994695	1.000394
670.334859	1.000542
670.674973	0.999671
671.015035	0.999901
671.355047	0.999280
671.695008	0.999500
672.034918	1.000190
672.374777	1.000187
672.714585	0.999434
673.054342	1.000696
673.394049	0.998852
673.733705	0.998862
674.073310	0.999928
674.412864	1.000112
674.752368	0.999921
675.091820	1.000548
675.431223	1.000131
675.770574	1.000781
676.109875	1.000537
676.449125	1.000219
676.788324	0.999501
677.127473	1.001115
677.466571	1.000043
677.805619	1.000381
678.144616	1.000575
678.483562	0.999549
678.822458	0.998981
679.161303	1.000478
679.500098	0.999432
679.838842	1.000492
680.177535	1.000350
680.516179	1.000317
680.854771	0.999920
681.193314	1.000430
681.531805	1.000297
681.870247	0.999517
682.208638	0.999678
682.546978	0.999359
682.885268	0.999740
683.223508	0.999751
683.561697	0.999531
683.899836	1.000280
684.237925	1.000967
684.575963	0.999480
684.913951	0.999976
685.251889	1.001075
685.589776	1.000065
685.927614	1.000174
686.265401	0.999710
686.603137	0.999601
686.940824	0.998909
687.278460	0.999899
687.616046	1.000235
687.953582	0.999094
688.291068	0.999750
688.628504	1.000504
