Dividing Wavelength (nm)	Counts (n)	Blue Motor Position (mm): 0.000000	Red Motor Position (mm): 47.000000	
326.493990	1.000896
326.888308	1.000896
327.282561	1.000896
327.676750	1.000603
328.070874	1.000171
328.464933	1.000588
328.858929	1.000069
329.252859	1.000539
329.646726	0.999432
330.040528	1.000491
330.434265	1.000272
330.827938	1.001022
331.221547	1.001156
331.615091	1.000094
332.008571	1.001016
332.401986	0.999877
332.795338	0.999972
333.188625	0.999489
333.581847	1.001424
333.975006	0.999487
334.368100	0.999529
334.761129	0.999749
335.154095	1.001017
335.546996	1.001108
335.939833	1.000036
336.332606	1.001001
336.725315	1.001983
337.117960	1.001293
337.510540	1.000336
337.903056	1.000696
338.295508	1.000170
338.687896	1.001047
339.080220	1.000593
339.472480	0.999963
339.864676	1.000597
340.256807	0.999845
340.648875	1.000500
341.040879	1.000907
341.432818	1.000326
341.824694	1.000572
342.216506	1.000790
342.608253	1.001581
342.999937	0.999954
343.391557	0.999792
343.783113	0.999447
344.174605	1.000888
344.566033	1.000186
344.957397	0.997789
345.348697	0.998904
345.739934	0.999845
346.131106	1.000148
346.522215	1.000325
346.913260	0.999792
347.304241	1.000557
347.695159	1.000236
348.086012	0.999911
348.476802	0.999873
348.867528	0.999562
349.258191	0.999882
349.648789	1.000614
350.039324	1.000453
350.429796	1.000071
350.820203	1.000448
351.210548	0.999610
351.600828	1.000478
351.991045	1.000943
352.381198	0.999529
352.771288	1.000394
353.161314	1.000181
353.551276	1.001024
353.941175	0.999971
354.331010	0.999676
354.720782	1.000599
355.110490	1.000729
355.500135	1.000367
355.889717	1.000423
356.279235	1.001298
356.668689	0.999789
357.058080	1.000154
357.447408	1.000850
357.836672	1.000364
358.225873	1.001515
358.615010	1.000236
359.004084	1.001527
359.393095	1.000290
359.782043	0.999957
360.170927	1.001107
360.559748	1.000840
360.948505	1.000010
361.337199	0.999875
361.725830	1.000336
362.114398	1.000327
362.502903	1.001591
362.891344	1.000852
363.279722	0.999718
363.668037	0.999838
364.056289	0.999906
364.444478	1.001468
364.832603	0.999608
365.220665	1.000797
365.608665	1.000291
365.996601	0.999873
366.384474	0.999188
366.772284	0.999939
367.160031	0.999601
367.547715	0.998843
367.935336	1.000546
368.322893	0.999196
368.710388	0.999456
369.097820	1.001115
369.485189	1.000774
369.872495	0.999570
370.259738	0.999106
370.646918	0.999993
371.034035	1.001338
371.421090	0.999512
371.808081	0.999895
372.195010	1.000239
372.581875	1.000393
372.968678	1.000053
373.355418	1.001060
373.742096	1.000520
374.128710	1.002180
374.515262	0.999555
374.901751	1.001299
375.288177	0.999514
375.674540	1.000666
376.060841	0.999613
376.447079	1.000632
376.833254	0.999754
377.219367	1.000297
377.605417	1.000084
377.991404	1.000599
378.377329	0.999943
378.763191	0.999935
379.148991	1.001205
379.534727	1.000639
379.920402	1.001853
380.306013	1.000078
380.691563	1.000841
381.077049	1.000575
381.462474	1.000107
381.847835	1.001080
382.233134	1.000037
382.618371	1.001076
383.003545	1.000409
383.388657	1.000798
383.773706	1.001260
384.158693	1.000918
384.543618	1.000427
384.928480	1.002198
385.313280	1.000021
385.698017	1.002111
386.082692	1.000876
386.467305	1.001220
386.851856	1.001219
387.236344	1.000955
387.620770	0.999682
388.005133	1.001566
388.389435	1.001444
388.773674	1.000264
389.157851	1.001038
389.541965	1.001435
389.926018	0.999765
390.310008	1.001839
390.693936	1.000478
391.077802	1.001551
391.461606	0.999525
391.845348	1.001233
392.229027	1.002123
392.612645	1.000702
392.996200	1.002555
393.379694	1.001592
393.763125	1.002384
394.146494	1.000617
394.529801	1.001143
394.913047	1.001702
395.296230	1.000687
395.679351	1.001224
396.062410	1.000627
396.445408	1.001135
396.828343	1.000560
397.211217	1.000578
397.594028	1.001345
397.976778	1.000593
398.359466	1.001440
398.742092	1.000620
399.124656	1.001015
399.507158	1.002260
399.889598	1.001233
400.271977	1.001562
400.654294	1.000862
401.036549	1.001495
401.418742	1.002185
401.800874	1.000062
402.182944	1.000875
402.564952	1.000418
402.946898	1.002413
403.328783	1.001311
403.710606	1.001079
404.092367	1.001159
404.474067	1.001848
404.855705	1.000974
405.237282	1.001858
405.618797	1.001221
406.000250	1.000416
406.381642	1.000783
406.762972	1.001199
407.144240	1.001475
407.525447	1.002445
407.906593	1.001219
408.287677	1.001236
408.668700	1.002221
409.049661	1.000017
409.430560	1.001024
409.811399	0.999896
410.192176	1.000885
410.572891	1.000878
410.953545	1.000758
411.334138	1.000932
411.714669	1.001403
412.095139	1.001209
412.475547	1.001493
412.855894	1.000158
413.236180	1.000985
413.616405	1.001897
413.996568	1.001978
414.376670	1.001534
414.756711	1.000986
415.136691	1.000979
415.516609	1.001246
415.896466	1.000601
416.276262	0.999966
416.655997	1.001035
417.035670	1.000997
417.415283	1.001469
417.794834	1.001420
418.174324	1.001836
418.553753	1.001575
418.933121	1.001013
419.312428	1.000881
419.691674	1.001285
420.070859	1.002360
420.449983	1.001766
420.829045	1.000339
421.208047	1.002620
421.586988	1.001367
421.965867	1.002005
422.344686	1.001669
422.723444	1.001352
423.102141	1.001247
423.480777	1.001024
423.859352	1.001327
424.237866	1.000831
424.616319	1.000838
424.994712	1.001500
425.373044	1.001513
425.751314	1.001392
426.129524	1.001499
426.507673	1.001503
426.885762	1.002624
427.263789	1.001683
427.641756	1.002065
428.019662	1.001502
428.397508	1.000961
428.775292	1.000939
429.153016	1.001401
429.530679	1.001842
429.908282	1.001801
430.285824	1.001183
430.663305	1.000154
431.040726	1.000586
431.418086	1.002736
431.795385	1.002327
432.172624	1.001148
432.549802	1.001837
432.926920	1.001814
433.303977	1.001250
433.680974	1.001383
434.057910	1.001630
434.434786	1.001874
434.811601	1.001283
435.188355	1.001227
435.565050	1.001017
435.941683	1.001838
436.318257	1.002889
436.694770	1.001267
437.071222	1.001349
437.447614	1.001458
437.823946	1.001260
438.200218	1.002030
438.576429	1.001906
438.952580	1.001924
439.328670	1.000716
439.704700	1.001376
440.080670	1.001891
440.456580	1.001042
440.832429	1.001111
441.208218	1.001582
441.583947	1.002065
441.959616	1.001091
442.335224	1.001586
442.710773	1.002106
443.086261	1.000624
443.461689	1.000502
443.837057	1.001506
444.212365	1.001839
444.587612	1.001056
444.962800	1.000993
445.337927	1.001635
445.712995	1.002071
446.088002	1.002185
446.462949	1.002360
446.837837	1.001837
447.212664	1.002139
447.587431	1.001884
447.962139	1.001115
448.336786	1.001606
448.711374	1.002162
449.085901	1.001025
449.460369	1.002123
449.834776	1.001203
450.209124	1.001773
450.583412	1.001327
450.957640	1.001169
451.331808	1.001458
451.705917	1.000979
452.079965	1.000736
452.453954	1.001866
452.827883	1.001374
453.201752	1.001330
453.575562	1.001685
453.949311	1.001899
454.323001	1.001211
454.696632	1.002007
455.070202	1.001428
455.443713	1.000725
455.817164	1.001353
456.190556	1.001978
456.563888	1.001581
456.937160	1.001345
457.310373	1.001184
457.683526	1.001208
458.056619	1.000771
458.429653	1.001960
458.802628	1.000644
459.175542	1.000949
459.548398	1.001396
459.921194	1.001431
460.293930	1.001904
460.666607	1.001110
461.039224	1.000614
461.411782	1.000725
461.784280	1.001058
462.156719	1.002566
462.529099	1.002098
462.901419	1.001818
463.273680	1.001154
463.645882	1.000733
464.018024	1.001334
464.390106	1.001404
464.762130	1.002305
465.134094	1.001272
465.505999	1.001767
465.877845	1.001701
466.249631	1.002143
466.621358	1.000925
466.993026	1.001650
467.364634	1.001650
467.736184	1.002052
468.107674	1.001553
468.479105	1.001072
468.850477	1.001768
469.221790	1.001620
469.593043	1.002044
469.964238	1.002252
470.335373	1.001576
470.706449	1.001395
471.077467	1.001434
471.448425	1.001900
471.819324	1.001856
472.190164	1.001519
472.560945	1.001499
472.931667	1.001090
473.302330	1.000791
473.672934	1.001756
474.043479	1.001703
474.413965	1.000680
474.784393	1.001399
475.154761	1.001959
475.525070	1.001769
475.895321	1.002167
476.265513	1.001326
476.635645	1.001808
477.005719	1.001928
477.375734	1.001284
477.745691	1.001413
478.115588	1.001304
478.485427	1.002109
478.855207	1.001480
479.224928	1.001935
479.594591	1.001254
479.964194	1.001620
480.333739	1.001627
480.703226	1.001678
481.072653	1.002693
481.442022	1.002278
481.811333	1.000998
482.180584	1.001901
482.549777	1.001708
482.918912	1.001835
483.287988	1.001964
483.657005	1.001446
484.025964	1.002304
484.394864	1.002390
484.763706	1.002185
485.132489	1.002063
485.501213	1.002145
485.869879	1.001472
486.238487	1.001558
486.607036	1.001817
486.975527	1.001387
487.343959	1.001580
487.712333	1.001571
488.080648	1.002290
488.448905	1.002132
488.817104	1.001622
489.185244	1.001613
489.553326	1.001933
489.921350	1.001602
490.289315	1.002445
490.657222	1.001925
491.025070	1.001889
491.392861	1.002721
491.760593	1.002610
492.128267	1.001464
492.495883	1.001697
492.863440	1.001955
493.230939	1.001908
493.598380	1.001908
493.965763	1.001454
494.333088	1.002065
494.700354	1.001339
495.067563	1.001304
495.434713	1.002324
495.801805	1.001802
496.168839	1.001614
496.535815	1.001093
496.902733	1.001452
497.269593	1.001374
497.636395	1.001547
498.003139	1.001469
498.369825	1.002538
498.736453	1.001354
499.103023	1.001260
499.469535	1.001411
499.835989	1.001432
500.202385	1.001775
500.568723	1.002098
500.935003	1.002441
501.301226	1.001846
501.667390	1.001491
502.033497	1.002246
502.399546	1.002176
502.765537	1.001164
503.131470	1.001634
503.497345	1.001981
503.863163	1.002509
504.228923	1.001885
504.594625	1.001857
504.960269	1.002497
505.325856	1.001573
505.691385	1.002035
506.056856	1.001860
506.422270	1.001446
506.787625	1.001904
507.152924	1.001399
507.518164	1.001568
507.883347	1.001934
508.248472	1.000780
508.613540	1.002298
508.978550	1.002489
509.343503	1.001344
509.708398	1.001779
510.073236	1.001734
510.438016	1.002700
510.802738	1.002171
511.167403	1.001797
511.532010	1.002241
511.896561	1.001285
512.261053	1.002744
512.625488	1.001707
512.989866	1.001798
513.354186	1.002109
513.718449	1.001624
514.082655	1.001723
514.446803	1.002130
514.810894	1.002217
515.174927	1.002180
515.538904	1.001772
515.902822	1.001228
516.266684	1.001754
516.630488	1.002267
516.994235	1.000949
517.357925	1.001673
517.721558	1.001695
518.085133	1.000888
518.448651	1.002693
518.812112	1.001677
519.175516	1.001777
519.538863	1.002635
519.902152	1.001089
520.265385	1.002040
520.628560	1.001537
520.991678	1.001799
521.354739	1.001949
521.717743	1.002163
522.080690	1.001959
522.443580	1.001405
522.806413	1.001730
523.169189	1.001626
523.531908	1.001455
523.894569	1.002277
524.257174	1.002072
524.619722	1.001512
524.982213	1.001215
525.344647	1.001563
525.707025	1.001310
526.069345	1.001074
526.431608	1.001966
526.793815	1.002342
527.155964	1.001755
527.518057	1.002031
527.880093	1.001679
528.242072	1.002151
528.603995	1.001682
528.965860	1.002207
529.327669	1.001407
529.689421	1.001291
530.051117	1.002237
530.412755	1.001759
530.774337	1.002374
531.135862	1.001873
531.497331	1.001950
531.858743	1.001872
532.220098	1.001637
532.581396	1.001674
532.942638	1.002462
533.303824	1.001810
533.664953	1.002013
534.026025	1.001663
534.387040	1.001435
534.747999	1.001894
535.108902	1.002347
535.469748	1.001756
535.830537	1.001693
536.191270	1.001359
536.551947	1.001531
536.912567	1.001585
537.273131	1.002403
537.633638	1.001271
537.994089	1.001932
538.354483	1.001483
538.714821	1.002132
539.075103	1.001416
539.435328	1.001852
539.795497	1.001695
540.155609	1.001315
540.515665	1.001783
540.875665	1.001087
541.235609	1.001934
541.595496	1.001236
541.955328	1.000938
542.315102	1.001334
542.674821	1.002131
543.034483	1.001291
543.394090	1.000829
543.753640	1.002165
544.113134	1.001705
544.472571	1.001827
544.831953	1.001416
545.191278	1.001752
545.550548	1.001737
545.909761	1.000755
546.268918	1.001680
546.628019	1.002093
546.987064	1.000854
547.346053	1.002035
547.704986	1.001521
548.063863	1.001736
548.422684	1.001718
548.781449	1.002229
549.140158	1.001792
549.498811	1.001903
549.857408	1.001526
550.215949	1.001742
550.574434	1.001233
550.932864	1.001905
551.291237	1.002025
551.649555	1.001732
552.007817	1.001768
552.366022	1.001063
552.724173	1.002024
553.082267	1.002109
553.440305	1.001143
553.798288	1.001949
554.156215	1.001406
554.514086	1.002299
554.871902	1.001087
555.229661	1.001461
555.587365	1.001686
555.945014	1.002419
556.302606	1.001164
556.660143	1.001594
557.017625	1.001452
557.375050	1.001267
557.732421	1.000921
558.089735	1.002078
558.446994	1.002516
558.804197	1.001816
559.161345	1.002155
559.518437	1.002922
559.875474	1.000667
560.232455	1.001597
560.589381	1.002599
560.946251	1.001102
561.303065	1.001893
561.659825	1.001561
562.016528	1.001178
562.373177	1.001783
562.729770	1.001170
563.086307	1.001880
563.442789	1.001073
563.799216	1.001715
564.155587	1.000490
564.511904	1.000742
564.868164	1.001024
565.224370	1.001762
565.580520	1.001249
565.936615	1.000964
566.292654	1.001520
566.648638	1.001333
567.004567	1.000842
567.360441	1.001490
567.716260	1.001861
568.072023	1.001741
568.427732	1.001812
568.783385	1.001651
569.138982	1.001687
569.494525	1.001032
569.850013	1.001502
570.205445	1.001631
570.560823	1.001681
570.916145	1.000925
571.271412	1.001136
571.626625	1.001144
571.981782	1.000914
572.336884	1.001612
572.691931	1.001203
573.046923	1.000845
573.401860	1.001787
573.756743	1.001416
574.111570	1.002124
574.466342	1.001796
574.821059	1.001745
575.175722	1.001400
575.530330	1.001606
575.884882	1.001251
576.239380	1.001717
576.593823	1.002327
576.948211	1.001077
577.302544	1.001200
577.656823	1.000870
578.011047	1.001460
578.365216	1.001530
578.719330	1.000639
579.073389	1.002267
579.427394	1.001370
579.781344	1.001409
580.135239	1.001572
580.489080	1.001452
580.842866	1.001558
581.196597	1.000757
581.550273	1.000227
581.903895	1.001651
582.257463	1.001301
582.610975	1.001072
582.964434	1.001445
583.317837	1.002415
583.671186	1.001381
584.024481	1.001200
584.377721	1.001240
584.730906	1.001040
585.084037	1.000509
585.437113	1.000705
585.790135	1.001371
586.143103	1.000644
586.496016	1.002439
586.848874	1.001268
587.201679	1.001466
587.554428	1.001646
587.907124	1.001088
588.259765	1.001631
588.612352	1.002379
588.964884	1.001776
589.317362	1.001218
589.669786	1.001787
590.022155	1.001261
590.374470	1.001258
590.726731	1.001086
591.078937	1.000855
591.431090	1.001334
591.783188	1.000993
592.135232	1.001790
592.487222	1.001936
592.839157	1.001498
593.191038	1.001851
593.542866	1.000807
593.894639	1.002029
594.246358	1.000999
594.598022	1.001723
594.949633	1.001503
595.301190	1.000757
595.652692	1.001328
596.004141	1.001511
596.355535	1.001431
596.706876	1.000909
597.058162	1.001136
597.409395	1.001417
597.760573	1.001190
598.111698	1.001060
598.462768	1.000660
598.813785	1.001220
599.164748	1.001096
599.515657	1.000887
599.866511	1.000878
600.217312	1.001077
600.568060	1.001646
600.918753	1.001591
601.269392	1.000963
601.619978	1.001015
601.970510	1.000801
602.320988	1.001725
602.671412	1.000770
603.021783	1.001308
603.372100	1.002239
603.722363	1.001482
604.072572	1.001364
604.422728	1.001442
604.772830	1.000654
605.122878	1.000618
605.472872	1.001149
605.822813	1.001022
606.172701	1.001189
606.522534	1.001286
606.872314	1.001321
607.222041	1.001055
607.571714	1.001326
607.921333	1.000570
608.270899	1.001338
608.620411	1.000980
608.969870	1.001139
609.319276	1.000370
609.668627	1.001733
610.017926	1.000619
610.367171	1.000991
610.716362	1.001045
611.065500	1.001272
611.414585	1.000846
611.763616	1.000997
612.112594	1.001007
612.461518	0.999980
612.810389	1.000733
613.159207	1.000676
613.507971	1.000414
613.856682	1.000816
614.205340	1.001583
614.553945	0.999958
614.902496	1.001145
615.250994	1.001316
615.599439	1.001305
615.947830	1.001200
616.296169	1.000985
616.644454	1.000665
616.992686	1.000876
617.340864	1.000559
617.688990	1.001004
618.037063	1.001250
618.385082	1.001258
618.733048	1.001119
619.080961	1.001513
619.428821	1.001189
619.776628	1.000989
620.124382	1.000499
620.472083	0.999643
620.819731	1.001141
621.167326	1.000393
621.514868	1.000793
621.862357	1.000952
622.209793	1.001485
622.557176	0.999598
622.904506	1.000613
623.251783	0.999952
623.599007	1.000950
623.946179	1.000794
624.293297	1.000379
624.640363	1.000744
624.987376	0.999591
625.334336	1.001024
625.681243	1.000534
626.028097	1.001117
626.374899	1.001020
626.721647	1.001091
627.068343	1.001867
627.414987	1.000655
627.761577	1.000668
628.108115	1.000265
628.454600	1.000672
628.801032	1.001044
629.147412	1.000897
629.493739	1.000251
629.840014	1.001189
630.186236	1.001329
630.532405	1.000999
630.878521	1.000169
631.224585	1.000914
631.570597	1.000472
631.916556	1.000711
632.262462	1.001004
632.608316	1.001241
632.954117	1.000134
633.299866	1.000579
633.645562	1.000372
633.991206	1.000235
634.336797	1.001255
634.682336	1.001214
635.027823	1.000976
635.373257	1.001163
635.718639	1.000647
636.063968	1.000352
636.409245	1.000102
636.754470	1.001088
637.099642	1.001275
637.444762	1.000700
637.789829	1.000719
638.134845	1.001104
638.479808	1.001226
638.824719	1.000768
639.169577	1.000770
639.514383	1.000160
639.859137	1.000488
640.203839	1.000971
640.548489	0.999450
640.893086	1.000543
641.237632	1.001183
641.582125	0.999859
641.926566	0.999362
642.270955	1.000861
642.615292	1.000728
642.959576	1.000845
643.303809	0.999534
643.647990	1.000423
643.992118	0.999905
644.336195	1.001605
644.680219	1.000639
645.024192	1.001035
645.368112	1.000443
645.711981	1.000682
646.055797	1.000064
646.399562	0.999442
646.743274	0.999029
647.086935	1.000604
647.430544	1.000217
647.774101	0.999929
648.117606	1.000750
648.461059	0.999904
648.804460	0.999508
649.147810	1.000790
649.491108	1.000352
649.834354	0.999721
650.177548	1.001263
650.520690	1.000853
650.863781	0.999927
651.206820	1.001521
651.549807	1.000402
651.892742	1.000985
652.235626	0.999664
652.578458	1.000904
652.921238	0.999913
653.263967	1.001516
653.606644	1.000912
653.949269	1.000510
654.291843	1.001211
654.634365	1.000297
654.976836	1.000341
655.319255	0.999798
655.661622	1.000393
656.003938	1.000223
656.346203	0.999885
656.688416	1.000195
657.030577	1.000665
657.372687	0.999378
657.714746	0.999796
658.056753	1.000813
658.398708	1.001157
658.740612	1.000906
659.082465	1.000272
659.424266	1.000797
659.766016	1.000113
660.107715	0.999692
660.449362	0.999777
660.790958	1.000211
661.132503	0.998434
661.473996	0.999868
661.815438	0.999219
662.156829	0.999796
662.498168	1.000584
662.839456	0.999487
663.180693	1.000782
663.521879	0.999884
663.863013	1.000869
664.204097	1.000310
664.545129	1.000281
664.886110	0.999924
665.227040	0.999449
665.567918	0.999753
665.908746	1.000663
666.249522	0.999827
666.590248	1.000006
666.930922	1.000405
667.271545	1.000307
667.612118	0.999867
667.952639	0.999420
668.293109	1.000068
668.633528	0.999712
668.973896	1.000356
669.314213	0.999588
669.654480	1.000241
669.994695	1.000009
670.334859	0.999652
670.674973	0.998834
671.015035	0.999782
671.355047	0.999296
671.695008	0.999970
672.034918	1.000263
672.374777	0.999897
672.714585	0.999923
673.054342	1.000423
673.394049	0.999476
673.733705	0.999219
674.073310	0.999279
674.412864	0.999832
674.752368	0.999624
675.091820	1.000723
675.431223	0.999819
675.770574	0.999881
676.109875	0.999611
676.449125	1.000148
676.788324	0.999369
677.127473	1.000795
677.466571	0.999267
677.805619	0.999582
678.144616	0.999563
678.483562	0.999656
678.822458	0.999595
679.161303	1.000823
679.500098	0.999943
679.838842	1.001095
680.177535	1.000404
680.516179	1.000237
680.854771	0.999986
681.193314	1.000512
681.531805	1.000332
681.870247	0.998948
682.208638	0.999134
682.546978	0.998851
682.885268	0.999328
683.223508	0.999715
683.561697	0.998946
683.899836	0.999983
684.237925	0.999917
684.575963	0.998700
684.913951	0.999619
685.251889	1.000036
685.589776	0.999268
685.927614	0.999304
686.265401	0.999414
686.603137	0.999197
686.940824	0.999947
687.278460	0.998731
687.616046	1.000086
687.953582	0.998524
688.291068	0.999301
688.628504	0.999396
