Dividing Wavelength (nm)	Counts (n)	Blue Motor Position (mm): 0.000000	Red Motor Position (mm): 48.300000	
326.493990	1.001656
326.888308	1.001656
327.282561	1.001656
327.676750	0.999077
328.070874	0.998763
328.464933	0.999999
328.858929	0.999340
329.252859	0.999546
329.646726	0.999002
330.040528	1.000018
330.434265	0.999862
330.827938	1.001856
331.221547	1.001505
331.615091	0.999369
332.008571	1.000602
332.401986	1.000984
332.795338	1.000435
333.188625	0.998822
333.581847	1.000932
333.975006	1.000218
334.368100	1.000140
334.761129	0.999560
335.154095	1.000279
335.546996	0.999252
335.939833	0.999790
336.332606	0.999715
336.725315	1.000154
337.117960	1.001880
337.510540	1.000394
337.903056	1.001827
338.295508	0.999278
338.687896	1.001643
339.080220	0.999991
339.472480	0.999773
339.864676	1.000289
340.256807	1.000792
340.648875	1.001192
341.040879	1.001515
341.432818	1.000752
341.824694	1.000171
342.216506	1.001078
342.608253	1.000760
342.999937	0.999884
343.391557	0.999797
343.783113	1.000098
344.174605	0.998950
344.566033	1.000486
344.957397	0.999500
345.348697	0.999085
345.739934	0.999767
346.131106	1.001097
346.522215	0.998694
346.913260	0.999601
347.304241	1.000840
347.695159	0.999436
348.086012	0.999295
348.476802	1.000509
348.867528	0.998829
349.258191	0.999130
349.648789	1.000813
350.039324	0.999513
350.429796	1.000929
350.820203	1.000888
351.210548	1.000016
351.600828	1.000803
351.991045	1.000470
352.381198	0.999461
352.771288	0.999590
353.161314	1.000004
353.551276	1.000945
353.941175	1.000220
354.331010	0.999069
354.720782	1.000959
355.110490	0.999769
355.500135	1.000320
355.889717	1.000250
356.279235	1.000592
356.668689	0.999745
357.058080	1.000730
357.447408	1.002197
357.836672	1.000124
358.225873	1.001613
358.615010	0.999170
359.004084	1.001286
359.393095	1.000333
359.782043	1.000362
360.170927	1.001815
360.559748	1.000662
360.948505	1.000837
361.337199	1.000048
361.725830	1.000441
362.114398	1.000240
362.502903	1.001701
362.891344	1.001239
363.279722	1.000953
363.668037	1.000944
364.056289	1.001154
364.444478	1.000932
364.832603	1.001206
365.220665	0.998988
365.608665	1.000343
365.996601	1.000577
366.384474	1.001051
366.772284	1.000214
367.160031	0.998139
367.547715	0.999457
367.935336	0.999103
368.322893	0.999984
368.710388	0.999715
369.097820	1.000317
369.485189	1.000210
369.872495	0.999090
370.259738	0.998429
370.646918	1.001872
371.034035	1.001110
371.421090	1.001028
371.808081	0.999685
372.195010	1.000017
372.581875	1.000204
372.968678	0.999857
373.355418	0.999819
373.742096	0.999524
374.128710	1.001462
374.515262	0.999771
374.901751	1.000410
375.288177	0.999988
375.674540	1.000627
376.060841	0.999160
376.447079	1.000460
376.833254	0.999972
377.219367	0.999797
377.605417	1.000555
377.991404	1.000269
378.377329	0.999821
378.763191	0.999565
379.148991	1.000459
379.534727	1.000014
379.920402	1.000054
380.306013	1.000866
380.691563	1.000981
381.077049	1.000161
381.462474	0.999962
381.847835	1.000845
382.233134	0.999953
382.618371	0.999987
383.003545	1.000127
383.388657	0.999951
383.773706	1.000344
384.158693	0.999201
384.543618	1.000369
384.928480	1.000529
385.313280	1.000673
385.698017	1.001712
386.082692	1.001424
386.467305	1.000636
386.851856	1.000317
387.236344	0.999865
387.620770	0.999804
388.005133	0.999635
388.389435	1.001514
388.773674	0.999845
389.157851	1.001232
389.541965	1.000634
389.926018	1.000857
390.310008	1.001704
390.693936	1.000443
391.077802	1.001319
391.461606	1.000094
391.845348	1.001058
392.229027	1.000828
392.612645	1.000672
392.996200	1.001320
393.379694	1.000620
393.763125	1.000377
394.146494	1.000773
394.529801	1.001099
394.913047	1.000032
395.296230	1.000268
395.679351	0.999903
396.062410	0.999650
396.445408	1.001519
396.828343	1.000834
397.211217	1.000954
397.594028	1.000192
397.976778	1.000223
398.359466	1.000134
398.742092	1.000551
399.124656	0.999894
399.507158	1.000215
399.889598	1.000357
400.271977	1.000651
400.654294	1.000531
401.036549	1.000564
401.418742	1.001104
401.800874	0.999904
402.182944	1.000650
402.564952	0.999530
402.946898	1.000662
403.328783	1.000538
403.710606	0.999752
404.092367	1.000380
404.474067	1.000183
404.855705	1.000406
405.237282	1.000449
405.618797	1.000376
406.000250	0.999133
406.381642	1.001157
406.762972	1.000552
407.144240	1.001674
407.525447	1.000358
407.906593	1.001194
408.287677	1.000598
408.668700	1.000808
409.049661	0.999784
409.430560	1.000944
409.811399	1.000470
410.192176	1.000168
410.572891	1.000562
410.953545	1.000676
411.334138	0.999752
411.714669	1.001665
412.095139	1.000504
412.475547	1.001167
412.855894	1.000891
413.236180	1.001439
413.616405	1.000078
413.996568	1.001181
414.376670	1.000636
414.756711	0.999747
415.136691	1.000311
415.516609	1.000953
415.896466	1.000296
416.276262	0.999890
416.655997	1.000839
417.035670	0.999641
417.415283	1.000546
417.794834	1.000669
418.174324	1.000211
418.553753	1.000871
418.933121	1.000143
419.312428	1.000307
419.691674	1.000520
420.070859	1.000689
420.449983	1.000728
420.829045	1.001009
421.208047	1.001721
421.586988	1.000973
421.965867	0.999926
422.344686	1.001332
422.723444	1.001328
423.102141	1.000535
423.480777	1.000448
423.859352	1.000464
424.237866	0.999776
424.616319	1.001117
424.994712	1.000606
425.373044	1.000730
425.751314	1.000885
426.129524	1.000654
426.507673	1.000545
426.885762	1.000841
427.263789	1.000384
427.641756	1.000151
428.019662	1.001296
428.397508	1.000085
428.775292	0.999858
429.153016	1.000540
429.530679	1.000601
429.908282	1.001362
430.285824	1.000370
430.663305	0.999993
431.040726	1.000600
431.418086	1.001777
431.795385	1.001555
432.172624	1.000371
432.549802	1.001280
432.926920	1.001145
433.303977	1.000329
433.680974	1.000886
434.057910	1.000339
434.434786	1.001670
434.811601	0.999883
435.188355	1.000147
435.565050	0.999912
435.941683	1.000934
436.318257	1.001273
436.694770	0.999946
437.071222	1.000565
437.447614	1.000669
437.823946	1.001002
438.200218	1.001047
438.576429	0.999938
438.952580	1.001137
439.328670	1.000966
439.704700	1.000884
440.080670	1.000829
440.456580	1.000404
440.832429	1.000547
441.208218	1.000415
441.583947	1.000556
441.959616	1.001029
442.335224	1.000727
442.710773	1.000784
443.086261	1.000325
443.461689	1.000490
443.837057	1.001154
444.212365	1.000411
444.587612	1.001403
444.962800	1.000110
445.337927	1.000823
445.712995	1.000849
446.088002	1.001294
446.462949	1.000600
446.837837	1.000661
447.212664	1.001031
447.587431	1.000679
447.962139	1.000011
448.336786	1.001500
448.711374	1.000489
449.085901	1.000404
449.460369	1.001827
449.834776	1.000519
450.209124	1.000518
450.583412	1.000296
450.957640	1.000539
451.331808	1.000070
451.705917	1.000977
452.079965	1.000163
452.453954	1.000644
452.827883	1.000442
453.201752	1.001287
453.575562	1.001082
453.949311	1.001222
454.323001	0.999973
454.696632	1.000245
455.070202	1.000588
455.443713	1.000871
455.817164	1.000853
456.190556	1.000391
456.563888	1.000429
456.937160	1.000464
457.310373	1.000300
457.683526	1.000359
458.056619	1.000532
458.429653	1.000495
458.802628	1.000240
459.175542	0.999931
459.548398	1.000476
459.921194	1.000301
460.293930	0.999928
460.666607	0.999662
461.039224	0.999144
461.411782	1.000298
461.784280	1.000253
462.156719	1.001161
462.529099	1.000774
462.901419	1.000512
463.273680	1.000709
463.645882	1.000032
464.018024	1.001010
464.390106	1.000909
464.762130	1.000824
465.134094	0.999821
465.505999	1.000289
465.877845	0.999957
466.249631	1.000343
466.621358	1.000185
466.993026	1.000875
467.364634	1.000373
467.736184	1.001253
468.107674	1.000463
468.479105	0.999992
468.850477	1.000804
469.221790	1.000610
469.593043	1.001167
469.964238	1.001357
470.335373	1.000748
470.706449	1.000541
471.077467	1.000918
471.448425	1.000086
471.819324	1.001274
472.190164	0.999710
472.560945	1.001633
472.931667	1.000963
473.302330	1.000270
473.672934	1.000962
474.043479	1.001161
474.413965	1.000045
474.784393	1.001624
475.154761	1.000619
475.525070	0.999643
475.895321	1.001470
476.265513	1.000475
476.635645	1.000809
477.005719	1.000899
477.375734	1.000362
477.745691	1.000269
478.115588	1.000644
478.485427	1.000637
478.855207	1.000126
479.224928	1.000891
479.594591	1.000117
479.964194	1.000808
480.333739	1.001000
480.703226	1.000536
481.072653	1.000714
481.442022	1.001145
481.811333	0.999513
482.180584	1.001574
482.549777	0.999931
482.918912	1.000630
483.287988	1.001156
483.657005	1.001057
484.025964	1.001159
484.394864	1.001599
484.763706	1.001081
485.132489	1.001357
485.501213	1.000758
485.869879	1.000905
486.238487	1.000747
486.607036	1.001309
486.975527	1.000891
487.343959	1.000619
487.712333	1.000471
488.080648	1.000697
488.448905	1.000960
488.817104	1.000788
489.185244	1.000817
489.553326	1.000605
489.921350	1.000192
490.289315	1.001168
490.657222	1.000033
491.025070	1.000829
491.392861	1.001303
491.760593	1.001285
492.128267	1.000486
492.495883	1.001147
492.863440	1.001003
493.230939	1.001120
493.598380	1.000272
493.965763	1.000822
494.333088	1.000917
494.700354	1.000811
495.067563	1.000693
495.434713	1.000465
495.801805	1.001236
496.168839	1.000681
496.535815	1.000188
496.902733	1.000260
497.269593	1.000448
497.636395	1.000906
498.003139	1.000878
498.369825	1.001225
498.736453	1.000339
499.103023	0.999921
499.469535	1.000113
499.835989	1.001308
500.202385	1.000862
500.568723	1.000926
500.935003	1.000847
501.301226	1.001106
501.667390	1.000537
502.033497	1.000921
502.399546	1.001109
502.765537	1.000025
503.131470	1.001448
503.497345	1.000416
503.863163	1.001695
504.228923	1.000405
504.594625	1.000807
504.960269	1.001116
505.325856	1.001013
505.691385	1.000703
506.056856	1.000749
506.422270	1.000283
506.787625	1.001031
507.152924	1.000661
507.518164	1.000313
507.883347	1.000351
508.248472	1.001394
508.613540	1.000843
508.978550	1.001061
509.343503	0.999978
509.708398	1.000627
510.073236	1.000920
510.438016	1.000639
510.802738	1.000224
511.167403	1.000961
511.532010	1.001040
511.896561	1.000728
512.261053	1.001761
512.625488	1.000359
512.989866	1.000764
513.354186	1.000731
513.718449	1.000728
514.082655	1.000809
514.446803	1.000937
514.810894	1.001183
515.174927	1.000624
515.538904	1.001279
515.902822	1.001079
516.266684	1.000768
516.630488	1.001422
516.994235	1.000825
517.357925	1.000902
517.721558	1.001114
518.085133	0.999876
518.448651	1.001573
518.812112	1.000897
519.175516	0.999903
519.538863	1.001098
519.902152	1.000728
520.265385	1.000243
520.628560	1.000194
520.991678	1.000793
521.354739	1.001230
521.717743	1.001288
522.080690	1.000663
522.443580	1.000658
522.806413	1.000641
523.169189	1.000641
523.531908	1.000290
523.894569	1.001199
524.257174	1.000941
524.619722	1.000976
524.982213	1.001152
525.344647	1.000822
525.707025	0.999738
526.069345	1.000100
526.431608	1.000925
526.793815	1.001005
527.155964	1.001027
527.518057	1.000706
527.880093	1.000895
528.242072	1.000492
528.603995	1.000373
528.965860	1.001209
529.327669	1.000557
529.689421	1.000154
530.051117	1.000993
530.412755	1.000530
530.774337	1.001179
531.135862	1.000922
531.497331	1.000895
531.858743	1.000966
532.220098	1.000869
532.581396	1.001228
532.942638	1.001321
533.303824	1.000874
533.664953	1.001133
534.026025	1.000913
534.387040	1.000474
534.747999	1.000612
535.108902	1.000829
535.469748	0.999890
535.830537	1.000958
536.191270	1.000955
536.551947	1.000904
536.912567	1.001141
537.273131	1.001809
537.633638	1.000039
537.994089	1.000852
538.354483	1.000798
538.714821	1.001043
539.075103	1.000538
539.435328	1.000683
539.795497	1.000565
540.155609	1.001123
540.515665	1.000614
540.875665	1.000628
541.235609	1.000870
541.595496	1.000373
541.955328	1.000289
542.315102	1.000840
542.674821	1.001040
543.034483	1.000469
543.394090	1.000103
543.753640	1.000577
544.113134	1.000507
544.472571	1.001366
544.831953	1.000865
545.191278	1.000383
545.550548	1.001589
545.909761	1.000312
546.268918	1.001169
546.628019	1.001105
546.987064	1.000591
547.346053	1.000882
547.704986	1.000920
548.063863	1.001042
548.422684	1.001213
548.781449	1.001539
549.140158	0.999892
549.498811	1.000992
549.857408	1.001190
550.215949	1.000821
550.574434	1.000146
550.932864	1.000486
551.291237	1.000860
551.649555	1.000831
552.007817	1.000327
552.366022	1.000618
552.724173	1.001099
553.082267	1.000694
553.440305	1.000591
553.798288	1.000116
554.156215	1.000819
554.514086	1.000976
554.871902	1.000726
555.229661	1.001026
555.587365	1.000872
555.945014	1.001538
556.302606	1.000882
556.660143	1.000762
557.017625	1.000895
557.375050	1.000821
557.732421	1.000363
558.089735	1.000985
558.446994	1.001098
558.804197	1.000709
559.161345	1.001769
559.518437	1.001494
559.875474	1.000263
560.232455	1.000661
560.589381	1.001098
560.946251	0.999871
561.303065	1.000935
561.659825	1.001240
562.016528	1.000015
562.373177	1.000913
562.729770	1.000839
563.086307	1.000885
563.442789	1.000549
563.799216	1.000226
564.155587	1.000729
564.511904	1.000051
564.868164	1.000004
565.224370	1.000008
565.580520	1.001088
565.936615	1.000173
566.292654	1.000238
566.648638	0.999850
567.004567	1.000313
567.360441	1.000945
567.716260	1.000591
568.072023	1.000650
568.427732	1.000618
568.783385	1.000100
569.138982	1.000923
569.494525	1.000267
569.850013	1.000825
570.205445	1.000655
570.560823	1.001234
570.916145	0.999646
571.271412	1.000438
571.626625	1.000454
571.981782	1.000092
572.336884	1.000898
572.691931	1.000260
573.046923	1.000310
573.401860	1.000417
573.756743	1.000266
574.111570	1.000946
574.466342	1.000703
574.821059	1.000900
575.175722	0.999959
575.530330	1.001053
575.884882	1.000399
576.239380	1.000782
576.593823	1.000674
576.948211	1.000236
577.302544	1.000733
577.656823	1.001007
578.011047	1.000487
578.365216	1.000921
578.719330	1.000110
579.073389	1.000746
579.427394	1.000619
579.781344	1.000829
580.135239	1.000605
580.489080	0.999949
580.842866	1.000832
581.196597	0.999992
581.550273	1.000283
581.903895	1.000820
582.257463	1.000643
582.610975	0.999864
582.964434	1.000526
583.317837	1.001408
583.671186	1.001085
584.024481	1.000419
584.377721	1.000352
584.730906	1.001021
585.084037	1.000220
585.437113	1.000756
585.790135	1.000382
586.143103	1.000673
586.496016	1.000991
586.848874	1.000664
587.201679	0.999645
587.554428	1.000401
587.907124	1.000181
588.259765	1.000813
588.612352	1.000814
588.964884	1.000481
589.317362	1.001039
589.669786	0.999848
590.022155	1.000878
590.374470	1.000429
590.726731	1.000297
591.078937	0.999287
591.431090	1.000327
591.783188	1.000223
592.135232	1.000739
592.487222	1.000660
592.839157	1.000719
593.191038	1.000823
593.542866	1.000363
593.894639	1.000962
594.246358	0.999985
594.598022	1.000100
594.949633	1.000477
595.301190	0.999886
595.652692	1.000062
596.004141	1.001262
596.355535	1.000538
596.706876	1.000199
597.058162	1.001106
597.409395	1.000594
597.760573	1.000430
598.111698	0.999750
598.462768	0.999185
598.813785	1.000058
599.164748	1.000186
599.515657	0.999952
599.866511	0.999990
600.217312	1.000247
600.568060	1.000649
600.918753	1.001052
601.269392	1.000106
601.619978	1.000283
601.970510	1.000456
602.320988	1.000679
602.671412	1.000218
603.021783	1.000242
603.372100	1.001041
603.722363	1.000966
604.072572	1.000006
604.422728	1.000243
604.772830	1.000178
605.122878	1.000288
605.472872	1.000603
605.822813	1.000249
606.172701	1.000462
606.522534	1.000915
606.872314	1.000606
607.222041	0.999625
607.571714	1.000251
607.921333	0.999957
608.270899	0.999883
608.620411	1.000429
608.969870	1.000440
609.319276	0.999993
609.668627	1.000763
610.017926	0.999606
610.367171	0.999883
610.716362	0.999853
611.065500	0.999923
611.414585	0.999965
611.763616	1.000399
612.112594	0.999388
612.461518	0.999784
612.810389	1.000253
613.159207	1.000611
613.507971	1.000014
613.856682	0.999606
614.205340	1.000396
614.553945	0.999532
614.902496	1.000538
615.250994	0.999956
615.599439	1.000474
615.947830	1.000187
616.296169	0.999774
616.644454	0.999916
616.992686	1.001089
617.340864	1.000130
617.688990	1.000688
618.037063	1.000229
618.385082	0.999500
618.733048	0.999715
619.080961	1.000205
619.428821	1.000248
619.776628	0.999627
620.124382	1.000497
620.472083	0.999385
620.819731	1.000683
621.167326	0.999359
621.514868	0.999950
621.862357	0.999631
622.209793	1.000659
622.557176	0.999283
622.904506	0.999552
623.251783	0.998946
623.599007	1.000002
623.946179	1.000474
624.293297	1.000010
624.640363	0.999881
624.987376	0.999200
625.334336	1.000484
625.681243	0.999780
626.028097	1.000781
626.374899	1.000749
626.721647	1.001041
627.068343	1.000857
627.414987	0.999603
627.761577	0.999969
628.108115	1.000425
628.454600	1.000078
628.801032	0.999578
629.147412	0.999903
629.493739	0.999713
629.840014	0.999639
630.186236	0.999449
630.532405	1.000564
630.878521	0.999459
631.224585	1.000362
631.570597	0.999976
631.916556	0.999821
632.262462	0.999891
632.608316	0.999796
632.954117	1.000105
633.299866	1.000073
633.645562	1.000268
633.991206	1.000606
634.336797	1.000380
634.682336	1.000200
635.027823	1.000553
635.373257	1.000256
635.718639	1.000399
636.063968	0.999044
636.409245	0.999604
636.754470	1.000500
637.099642	1.000280
637.444762	1.000150
637.789829	1.000684
638.134845	1.000515
638.479808	1.000186
638.824719	0.999951
639.169577	1.000290
639.514383	1.000429
639.859137	1.000651
640.203839	1.000595
640.548489	0.999921
640.893086	1.000446
641.237632	1.000958
641.582125	0.999314
641.926566	1.000112
642.270955	1.000639
642.615292	1.000561
642.959576	1.000333
643.303809	1.000754
643.647990	0.999329
643.992118	1.000516
644.336195	1.001288
644.680219	0.999419
645.024192	1.000410
645.368112	0.999815
645.711981	1.000546
646.055797	0.999646
646.399562	0.999634
646.743274	0.998768
647.086935	0.999619
647.430544	0.999916
647.774101	1.000311
648.117606	1.000030
648.461059	0.999834
648.804460	0.999288
649.147810	1.000213
649.491108	1.000229
649.834354	0.999511
650.177548	1.000496
650.520690	1.000734
650.863781	0.999490
651.206820	0.999779
651.549807	1.000361
651.892742	0.999725
652.235626	0.999858
652.578458	0.999921
652.921238	1.000015
653.263967	1.000804
653.606644	1.000618
653.949269	1.000288
654.291843	0.999885
654.634365	1.000237
654.976836	0.999763
655.319255	1.000011
655.661622	1.001065
656.003938	0.999946
656.346203	1.000446
656.688416	1.000660
657.030577	1.000645
657.372687	0.999844
657.714746	0.999093
658.056753	1.000085
658.398708	1.000182
658.740612	1.000653
659.082465	1.000548
659.424266	0.999647
659.766016	0.999474
660.107715	0.999707
660.449362	1.000420
660.790958	1.000091
661.132503	0.999066
661.473996	1.000088
661.815438	1.000107
662.156829	0.999022
662.498168	1.000407
662.839456	0.999971
663.180693	0.999881
663.521879	1.000768
663.863013	1.000700
664.204097	1.001130
664.545129	0.999497
664.886110	1.000629
665.227040	0.999962
665.567918	0.999145
665.908746	1.000336
666.249522	0.999890
666.590248	0.999558
666.930922	1.001551
667.271545	1.000074
667.612118	1.000870
667.952639	1.000191
668.293109	0.999771
668.633528	1.000473
668.973896	1.000145
669.314213	0.999579
669.654480	1.000415
669.994695	1.000270
670.334859	1.000164
670.674973	0.999749
671.015035	1.000200
671.355047	0.999492
671.695008	1.000274
672.034918	0.999362
672.374777	1.000298
672.714585	1.000392
673.054342	1.000988
673.394049	0.999845
673.733705	0.999299
674.073310	0.999956
674.412864	1.000251
674.752368	0.999496
675.091820	1.001066
675.431223	0.999812
675.770574	1.000123
676.109875	0.999416
676.449125	0.999768
676.788324	1.000288
677.127473	1.001307
677.466571	1.000540
677.805619	0.999656
678.144616	1.000539
678.483562	0.999768
678.822458	0.999238
679.161303	1.001589
679.500098	1.000044
679.838842	1.000738
680.177535	1.001424
680.516179	1.000393
680.854771	1.000611
681.193314	1.001071
681.531805	1.000131
681.870247	0.999529
682.208638	0.999107
682.546978	0.999033
682.885268	0.999734
683.223508	1.000548
683.561697	0.998848
683.899836	1.000529
684.237925	1.000157
684.575963	0.999907
684.913951	0.999216
685.251889	0.999897
685.589776	0.999568
685.927614	0.999175
686.265401	0.999922
686.603137	0.999665
686.940824	0.998998
687.278460	0.999834
687.616046	1.000154
687.953582	0.999067
688.291068	0.999615
688.628504	1.000498
