Dividing Wavelength (nm)	Counts (n)	Blue Motor Position (mm): 0.000000	Red Motor Position (mm): 45.000000	
326.493990	0.999662
326.888308	0.999662
327.282561	0.999662
327.676750	1.000711
328.070874	0.998146
328.464933	0.999698
328.858929	0.997757
329.252859	0.999587
329.646726	0.998133
330.040528	0.999823
330.434265	0.999687
330.827938	1.000598
331.221547	1.000113
331.615091	1.000808
332.008571	1.000670
332.401986	1.000648
332.795338	1.000202
333.188625	0.998647
333.581847	1.000720
333.975006	0.999174
334.368100	0.999802
334.761129	0.999425
335.154095	0.999965
335.546996	0.999919
335.939833	0.998845
336.332606	0.998626
336.725315	0.999577
337.117960	1.000766
337.510540	0.999300
337.903056	0.999393
338.295508	0.998536
338.687896	0.999292
339.080220	0.999577
339.472480	0.999614
339.864676	0.997966
340.256807	0.999566
340.648875	1.000719
341.040879	0.998831
341.432818	1.000050
341.824694	0.998617
342.216506	0.999940
342.608253	1.000040
342.999937	0.998640
343.391557	0.998461
343.783113	0.999937
344.174605	0.999600
344.566033	1.000097
344.957397	0.999212
345.348697	0.998781
345.739934	0.999258
346.131106	0.998507
346.522215	0.998565
346.913260	0.998949
347.304241	0.998968
347.695159	0.997091
348.086012	0.997691
348.476802	0.998594
348.867528	0.999507
349.258191	0.998604
349.648789	0.999001
350.039324	0.999017
350.429796	0.999583
350.820203	0.999576
351.210548	0.999016
351.600828	0.998751
351.991045	0.998025
352.381198	0.998508
352.771288	0.999510
353.161314	0.999599
353.551276	0.999580
353.941175	1.000354
354.331010	0.998479
354.720782	1.000098
355.110490	0.999142
355.500135	0.998799
355.889717	0.999129
356.279235	0.998941
356.668689	0.997643
357.058080	0.998945
357.447408	1.000618
357.836672	1.000569
358.225873	1.000589
358.615010	0.999398
359.004084	0.999585
359.393095	1.000264
359.782043	0.999859
360.170927	1.000175
360.559748	0.999728
360.948505	0.998574
361.337199	0.999396
361.725830	0.999761
362.114398	0.998905
362.502903	0.999232
362.891344	1.000548
363.279722	0.998499
363.668037	1.000212
364.056289	0.998840
364.444478	1.000012
364.832603	1.000118
365.220665	0.998745
365.608665	0.999700
365.996601	0.999203
366.384474	0.999252
366.772284	0.998814
367.160031	0.998251
367.547715	0.998546
367.935336	0.999045
368.322893	0.998707
368.710388	0.998232
369.097820	0.999333
369.485189	0.999498
369.872495	0.998680
370.259738	0.997682
370.646918	1.000420
371.034035	1.000072
371.421090	0.999166
371.808081	0.999109
372.195010	1.000597
372.581875	1.000172
372.968678	1.000026
373.355418	0.999705
373.742096	0.998188
374.128710	1.000376
374.515262	0.997305
374.901751	0.998833
375.288177	1.000360
375.674540	0.999764
376.060841	0.998284
376.447079	0.999967
376.833254	1.000274
377.219367	1.000417
377.605417	0.999528
377.991404	0.999763
378.377329	0.999490
378.763191	0.998982
379.148991	1.000707
379.534727	0.998940
379.920402	0.998655
380.306013	0.999077
380.691563	0.999541
381.077049	0.999109
381.462474	0.999668
381.847835	1.000057
382.233134	0.998904
382.618371	0.998847
383.003545	1.000043
383.388657	0.999736
383.773706	1.000428
384.158693	0.998720
384.543618	0.998549
384.928480	1.000311
385.313280	0.998821
385.698017	1.000700
386.082692	1.000015
386.467305	0.999753
386.851856	0.999776
387.236344	0.999330
387.620770	0.999874
388.005133	0.999111
388.389435	0.998772
388.773674	0.998959
389.157851	1.000287
389.541965	0.999752
389.926018	0.999319
390.310008	1.000643
390.693936	0.999770
391.077802	0.999387
391.461606	0.999616
391.845348	0.999737
392.229027	1.000640
392.612645	0.999316
392.996200	1.000291
393.379694	0.998918
393.763125	1.000292
394.146494	1.000125
394.529801	0.999110
394.913047	1.000929
395.296230	1.000849
395.679351	1.000241
396.062410	0.999427
396.445408	1.000513
396.828343	0.999214
397.211217	0.999371
397.594028	0.999720
397.976778	0.999812
398.359466	0.999454
398.742092	0.999114
399.124656	0.999651
399.507158	0.999984
399.889598	1.000627
400.271977	1.000341
400.654294	1.000273
401.036549	1.000160
401.418742	1.001077
401.800874	0.999036
402.182944	1.000486
402.564952	0.999225
402.946898	1.000505
403.328783	0.999533
403.710606	1.000243
404.092367	0.999172
404.474067	0.999729
404.855705	0.999564
405.237282	0.999563
405.618797	1.000069
406.000250	0.999057
406.381642	0.999938
406.762972	1.000047
407.144240	1.000573
407.525447	1.000098
407.906593	1.000473
408.287677	1.000099
408.668700	1.000287
409.049661	0.999183
409.430560	1.000847
409.811399	0.998969
410.192176	1.000347
410.572891	0.999430
410.953545	1.000075
411.334138	0.998662
411.714669	0.999728
412.095139	0.999687
412.475547	1.001098
412.855894	1.000413
413.236180	0.999286
413.616405	0.999478
413.996568	1.001117
414.376670	1.000301
414.756711	1.000390
415.136691	1.000803
415.516609	0.999811
415.896466	1.000071
416.276262	0.999863
416.655997	1.000259
417.035670	0.999784
417.415283	1.000417
417.794834	0.999693
418.174324	0.999668
418.553753	1.001000
418.933121	0.999493
419.312428	0.999706
419.691674	0.999701
420.070859	1.000440
420.449983	0.999774
420.829045	1.000123
421.208047	1.000426
421.586988	1.001273
421.965867	0.999623
422.344686	1.001194
422.723444	1.000342
423.102141	0.999853
423.480777	1.000554
423.859352	1.000343
424.237866	0.999792
424.616319	1.000604
424.994712	1.000838
425.373044	1.000962
425.751314	1.000361
426.129524	0.999907
426.507673	1.000098
426.885762	1.001589
427.263789	1.000257
427.641756	1.000238
428.019662	1.001447
428.397508	0.999355
428.775292	0.999638
429.153016	1.000439
429.530679	0.999887
429.908282	1.000936
430.285824	0.999884
430.663305	0.999524
431.040726	0.999650
431.418086	1.001837
431.795385	1.000363
432.172624	0.999688
432.549802	1.000468
432.926920	1.000615
433.303977	1.000341
433.680974	1.001278
434.057910	0.999614
434.434786	1.000280
434.811601	1.000129
435.188355	1.000541
435.565050	1.000283
435.941683	0.999880
436.318257	1.000163
436.694770	1.000016
437.071222	1.000835
437.447614	1.000261
437.823946	1.000322
438.200218	1.000582
438.576429	1.000917
438.952580	1.000882
439.328670	1.000415
439.704700	1.000584
440.080670	1.000732
440.456580	1.000433
440.832429	1.000125
441.208218	1.000741
441.583947	1.000646
441.959616	1.000918
442.335224	1.000285
442.710773	1.001031
443.086261	1.000261
443.461689	0.999660
443.837057	1.000382
444.212365	1.000964
444.587612	1.000521
444.962800	1.000099
445.337927	1.000065
445.712995	1.001212
446.088002	1.001142
446.462949	1.000852
446.837837	1.000160
447.212664	1.000515
447.587431	1.000844
447.962139	0.999998
448.336786	1.000237
448.711374	1.000322
449.085901	1.000353
449.460369	1.001114
449.834776	1.000186
450.209124	1.001507
450.583412	1.000634
450.957640	1.000914
451.331808	1.000003
451.705917	1.000946
452.079965	0.999985
452.453954	0.999936
452.827883	1.000009
453.201752	1.000975
453.575562	1.001003
453.949311	1.001030
454.323001	1.000761
454.696632	1.000439
455.070202	1.001180
455.443713	1.000162
455.817164	1.001397
456.190556	1.000278
456.563888	0.999724
456.937160	1.000891
457.310373	1.000269
457.683526	1.000795
458.056619	1.000206
458.429653	1.000827
458.802628	1.000774
459.175542	1.000439
459.548398	1.000424
459.921194	1.000375
460.293930	1.000430
460.666607	0.999751
461.039224	0.999049
461.411782	1.000728
461.784280	0.999399
462.156719	1.001388
462.529099	1.000861
462.901419	1.000948
463.273680	1.000301
463.645882	1.000332
464.018024	1.000791
464.390106	1.000645
464.762130	1.001715
465.134094	1.000811
465.505999	1.001078
465.877845	1.000693
466.249631	1.001000
466.621358	1.001105
466.993026	1.000637
467.364634	1.000357
467.736184	1.001177
468.107674	1.000380
468.479105	1.000309
468.850477	1.000778
469.221790	1.000996
469.593043	1.001129
469.964238	1.000842
470.335373	1.000440
470.706449	1.001223
471.077467	1.001302
471.448425	1.000868
471.819324	1.001992
472.190164	1.000991
472.560945	1.000614
472.931667	1.000507
473.302330	1.000899
473.672934	1.000919
474.043479	1.001180
474.413965	1.001145
474.784393	1.001279
475.154761	1.000603
475.525070	0.999819
475.895321	1.001398
476.265513	1.000550
476.635645	1.000512
477.005719	1.000915
477.375734	0.999959
477.745691	1.000938
478.115588	1.001382
478.485427	1.001217
478.855207	1.000706
479.224928	1.000814
479.594591	1.000576
479.964194	1.001283
480.333739	1.001033
480.703226	1.000715
481.072653	1.001471
481.442022	1.001533
481.811333	1.000032
482.180584	1.001365
482.549777	1.000756
482.918912	1.000746
483.287988	1.001065
483.657005	1.000721
484.025964	1.001716
484.394864	1.000996
484.763706	1.001310
485.132489	1.001452
485.501213	1.000718
485.869879	1.001050
486.238487	1.001377
486.607036	1.000849
486.975527	1.000378
487.343959	1.001395
487.712333	1.000749
488.080648	1.000126
488.448905	1.001047
488.817104	1.001461
489.185244	1.001086
489.553326	1.000924
489.921350	1.001296
490.289315	1.000590
490.657222	1.001327
491.025070	1.000221
491.392861	1.001341
491.760593	1.001116
492.128267	1.001019
492.495883	1.001075
492.863440	1.001277
493.230939	1.001529
493.598380	1.000520
493.965763	1.000618
494.333088	1.001060
494.700354	1.000694
495.067563	1.000449
495.434713	1.000538
495.801805	1.001287
496.168839	1.001092
496.535815	1.000522
496.902733	1.000496
497.269593	1.000442
497.636395	1.000944
498.003139	1.000058
498.369825	1.001066
498.736453	1.000905
499.103023	1.000676
499.469535	1.000780
499.835989	1.000900
500.202385	1.000631
500.568723	1.000793
500.935003	1.000941
501.301226	1.001500
501.667390	1.000969
502.033497	1.000776
502.399546	1.001183
502.765537	1.000310
503.131470	1.000466
503.497345	1.000696
503.863163	1.001576
504.228923	1.001552
504.594625	1.000630
504.960269	1.000997
505.325856	1.000727
505.691385	1.000915
506.056856	1.000382
506.422270	1.000920
506.787625	1.001107
507.152924	1.000713
507.518164	1.000435
507.883347	1.001158
508.248472	1.000841
508.613540	1.000861
508.978550	1.000773
509.343503	1.000729
509.708398	1.001133
510.073236	1.001781
510.438016	1.001024
510.802738	1.000537
511.167403	1.000578
511.532010	1.000696
511.896561	1.001069
512.261053	1.001270
512.625488	1.000675
512.989866	1.000598
513.354186	1.000479
513.718449	1.000578
514.082655	1.000750
514.446803	1.001138
514.810894	1.001293
515.174927	1.000714
515.538904	1.000184
515.902822	1.001117
516.266684	1.001516
516.630488	1.001365
516.994235	1.000541
517.357925	1.000831
517.721558	1.001355
518.085133	0.999897
518.448651	1.001813
518.812112	1.000766
519.175516	1.000496
519.538863	1.001024
519.902152	1.000243
520.265385	1.000725
520.628560	1.001042
520.991678	1.000832
521.354739	1.001398
521.717743	1.001453
522.080690	1.001048
522.443580	1.000622
522.806413	1.000831
523.169189	1.000668
523.531908	0.999753
523.894569	1.000500
524.257174	1.000739
524.619722	1.001136
524.982213	1.001151
525.344647	1.001085
525.707025	1.000094
526.069345	1.000586
526.431608	1.000238
526.793815	1.001003
527.155964	1.000989
527.518057	1.000638
527.880093	1.001136
528.242072	1.000331
528.603995	1.000567
528.965860	1.001226
529.327669	1.000671
529.689421	1.000714
530.051117	1.001747
530.412755	1.001036
530.774337	1.001018
531.135862	1.001165
531.497331	1.001121
531.858743	1.000830
532.220098	1.000831
532.581396	1.001049
532.942638	1.000733
533.303824	1.000733
533.664953	1.000820
534.026025	1.000302
534.387040	1.000247
534.747999	1.001141
535.108902	1.000871
535.469748	1.000183
535.830537	1.000304
536.191270	1.001411
536.551947	1.000331
536.912567	1.000659
537.273131	1.001361
537.633638	1.000023
537.994089	1.000399
538.354483	1.001112
538.714821	1.000577
539.075103	1.000410
539.435328	1.000575
539.795497	1.000349
540.155609	1.000013
540.515665	1.000562
540.875665	0.999909
541.235609	1.000277
541.595496	1.000815
541.955328	0.999851
542.315102	1.000934
542.674821	1.000106
543.034483	1.000142
543.394090	0.999490
543.753640	1.000685
544.113134	1.000373
544.472571	1.000611
544.831953	1.000670
545.191278	1.000075
545.550548	1.000528
545.909761	0.999512
546.268918	1.000502
546.628019	1.001022
546.987064	1.000350
547.346053	1.000546
547.704986	1.000196
548.063863	1.000351
548.422684	1.000839
548.781449	1.000982
549.140158	1.000526
549.498811	1.000023
549.857408	1.000433
550.215949	1.000844
550.574434	1.000203
550.932864	1.000407
551.291237	1.000432
551.649555	1.000640
552.007817	0.999759
552.366022	1.000063
552.724173	1.000307
553.082267	1.000463
553.440305	0.999425
553.798288	1.000246
554.156215	1.000205
554.514086	1.000369
554.871902	1.000172
555.229661	0.999859
555.587365	1.000003
555.945014	1.000397
556.302606	0.999663
556.660143	0.999749
557.017625	0.999656
557.375050	0.999975
557.732421	1.000228
558.089735	1.000074
558.446994	1.000642
558.804197	1.000323
559.161345	1.000620
559.518437	1.001284
559.875474	0.999943
560.232455	1.000219
560.589381	1.000459
560.946251	0.999618
561.303065	1.000147
561.659825	1.000238
562.016528	0.999750
562.373177	0.999837
562.729770	1.000130
563.086307	1.000188
563.442789	1.000732
563.799216	1.000191
564.155587	0.999860
564.511904	0.999518
564.868164	0.999846
565.224370	0.999950
565.580520	0.999822
565.936615	0.999812
566.292654	0.999804
566.648638	0.999716
567.004567	1.000263
567.360441	1.000671
567.716260	1.000186
568.072023	1.000624
568.427732	1.000554
568.783385	1.000517
569.138982	0.999728
569.494525	0.999601
569.850013	1.000076
570.205445	1.000474
570.560823	0.999950
570.916145	0.999815
571.271412	1.000182
571.626625	1.000239
571.981782	1.000032
572.336884	1.000429
572.691931	1.000569
573.046923	0.999575
573.401860	1.000388
573.756743	1.000429
574.111570	1.000461
574.466342	1.000758
574.821059	1.000016
575.175722	1.000211
575.530330	1.000381
575.884882	1.000302
576.239380	1.001144
576.593823	1.000290
576.948211	0.999945
577.302544	1.000095
577.656823	1.000796
578.011047	1.000392
578.365216	1.000035
578.719330	0.999670
579.073389	1.000540
579.427394	1.000202
579.781344	1.000098
580.135239	1.000489
580.489080	0.999658
580.842866	1.000578
581.196597	0.999733
581.550273	0.999483
581.903895	1.000620
582.257463	1.000202
582.610975	1.000746
582.964434	1.000578
583.317837	1.001246
583.671186	1.000069
584.024481	1.000166
584.377721	1.000312
584.730906	1.000073
585.084037	1.000434
585.437113	1.000573
585.790135	0.999987
586.143103	1.000103
586.496016	1.000943
586.848874	1.000464
587.201679	0.999983
587.554428	1.000254
587.907124	0.999851
588.259765	1.000310
588.612352	1.001326
588.964884	1.000414
589.317362	1.000984
589.669786	1.000700
590.022155	1.000605
590.374470	1.000284
590.726731	1.000005
591.078937	0.999721
591.431090	0.999812
591.783188	1.000384
592.135232	1.000101
592.487222	1.000502
592.839157	1.000891
593.191038	1.000868
593.542866	1.000056
593.894639	1.001404
594.246358	0.999973
594.598022	1.000296
594.949633	1.000867
595.301190	0.999872
595.652692	1.000446
596.004141	1.001108
596.355535	1.000740
596.706876	1.000013
597.058162	1.000898
597.409395	1.000582
597.760573	1.000769
598.111698	1.000840
598.462768	0.999689
598.813785	1.000143
599.164748	1.000424
599.515657	0.999707
599.866511	1.000440
600.217312	0.999844
600.568060	1.000379
600.918753	1.001008
601.269392	0.999919
601.619978	0.999758
601.970510	1.000110
602.320988	0.999798
602.671412	0.999985
603.021783	0.999851
603.372100	1.001629
603.722363	1.000591
604.072572	1.000211
604.422728	1.000827
604.772830	1.000454
605.122878	0.999921
605.472872	1.000420
605.822813	0.999686
606.172701	1.000613
606.522534	1.000942
606.872314	1.000493
607.222041	1.000421
607.571714	1.001287
607.921333	1.000415
608.270899	1.000583
608.620411	1.000298
608.969870	1.000229
609.319276	0.999655
609.668627	1.000997
610.017926	0.999528
610.367171	1.000574
610.716362	1.000138
611.065500	0.999698
611.414585	0.999669
611.763616	1.000213
612.112594	0.999476
612.461518	0.999888
612.810389	0.999712
613.159207	1.000204
613.507971	1.000036
613.856682	1.000629
614.205340	1.000696
614.553945	0.999494
614.902496	0.999725
615.250994	1.000038
615.599439	1.000511
615.947830	1.000540
616.296169	0.999721
616.644454	1.000110
616.992686	1.000015
617.340864	1.000032
617.688990	1.000724
618.037063	1.000603
618.385082	1.000448
618.733048	0.999940
619.080961	0.999852
619.428821	1.001072
619.776628	0.999700
620.124382	0.999903
620.472083	0.998334
620.819731	1.000452
621.167326	0.999867
621.514868	0.999579
621.862357	0.999759
622.209793	1.000259
622.557176	0.999367
622.904506	0.999808
623.251783	0.999296
623.599007	1.000317
623.946179	1.000923
624.293297	0.999837
624.640363	1.000350
624.987376	0.998349
625.334336	0.999806
625.681243	0.999433
626.028097	0.999861
626.374899	1.000623
626.721647	1.000251
627.068343	1.000658
627.414987	0.999786
627.761577	1.000068
628.108115	0.999964
628.454600	0.999835
628.801032	0.999486
629.147412	1.000026
629.493739	0.999217
629.840014	0.999331
630.186236	0.999643
630.532405	1.000572
630.878521	0.999859
631.224585	0.999644
631.570597	0.999843
631.916556	0.998652
632.262462	0.999693
632.608316	0.999210
632.954117	0.999495
633.299866	0.999068
633.645562	0.999535
633.991206	0.999896
634.336797	1.000125
634.682336	0.999234
635.027823	0.999624
635.373257	0.999484
635.718639	0.999496
636.063968	0.998984
636.409245	0.999241
636.754470	0.999625
637.099642	1.000051
637.444762	0.999584
637.789829	0.999313
638.134845	0.999151
638.479808	0.999173
638.824719	0.999676
639.169577	0.999180
639.514383	0.998895
639.859137	0.999676
640.203839	0.999885
640.548489	0.999040
640.893086	0.999826
641.237632	0.999753
641.582125	0.998626
641.926566	0.998041
642.270955	0.999526
642.615292	0.999751
642.959576	0.999835
643.303809	0.999617
643.647990	0.998740
643.992118	0.998701
644.336195	0.999931
644.680219	0.999056
645.024192	0.999492
645.368112	0.999008
645.711981	0.998793
646.055797	0.998921
646.399562	0.998249
646.743274	0.997466
647.086935	0.998346
647.430544	0.998287
647.774101	0.998194
648.117606	0.997993
648.461059	0.997928
648.804460	0.997285
649.147810	0.997549
649.491108	0.998504
649.834354	0.997940
650.177548	0.998673
650.520690	0.998826
650.863781	0.997444
651.206820	0.997806
651.549807	0.998292
651.892742	0.997871
652.235626	0.996868
652.578458	0.997832
652.921238	0.996729
653.263967	0.997937
653.606644	0.997896
653.949269	0.996538
654.291843	0.996735
654.634365	0.996505
654.976836	0.997333
655.319255	0.996580
655.661622	0.996867
656.003938	0.996954
656.346203	0.996532
656.688416	0.996833
657.030577	0.997143
657.372687	0.996471
657.714746	0.995802
658.056753	0.997144
658.398708	0.996617
658.740612	0.997096
659.082465	0.996066
659.424266	0.996069
659.766016	0.995349
660.107715	0.995120
660.449362	0.994753
660.790958	0.995285
661.132503	0.994225
661.473996	0.994962
661.815438	0.994364
662.156829	0.994995
662.498168	0.994857
662.839456	0.994530
663.180693	0.994696
663.521879	0.994940
663.863013	0.995436
664.204097	0.994821
664.545129	0.994305
664.886110	0.994039
665.227040	0.993324
665.567918	0.993923
665.908746	0.993735
666.249522	0.991919
666.590248	0.992552
666.930922	0.992600
667.271545	0.992119
667.612118	0.992084
667.952639	0.991734
668.293109	0.991102
668.633528	0.991393
668.973896	0.991448
669.314213	0.991316
669.654480	0.990600
669.994695	0.991268
670.334859	0.990618
670.674973	0.989816
671.015035	0.990785
671.355047	0.989504
671.695008	0.989767
672.034918	0.989201
672.374777	0.988791
672.714585	0.988552
673.054342	0.988932
673.394049	0.988549
673.733705	0.987274
674.073310	0.986776
674.412864	0.987452
674.752368	0.987031
675.091820	0.988106
675.431223	0.986713
675.770574	0.986395
676.109875	0.985985
676.449125	0.986583
676.788324	0.986685
677.127473	0.986890
677.466571	0.986744
677.805619	0.985190
678.144616	0.985537
678.483562	0.985081
678.822458	0.984503
679.161303	0.985874
679.500098	0.984412
679.838842	0.985581
680.177535	0.983962
680.516179	0.984376
680.854771	0.983249
681.193314	0.983179
681.531805	0.981470
681.870247	0.979740
682.208638	0.979833
682.546978	0.979647
682.885268	0.979116
683.223508	0.978991
683.561697	0.978183
683.899836	0.978922
684.237925	0.978905
684.575963	0.977118
684.913951	0.978534
685.251889	0.976895
685.589776	0.976121
685.927614	0.976300
686.265401	0.975348
686.603137	0.975235
686.940824	0.972641
687.278460	0.973060
687.616046	0.971666
687.953582	0.971019
688.291068	0.970350
688.628504	0.969694
