Dividing Wavelength (nm)	Counts (n)	Blue Motor Position (mm): 0.000000	Red Motor Position (mm): 48.800000	
326.493990	0.999573
326.888308	0.999573
327.282561	0.999573
327.676750	0.999341
328.070874	0.998959
328.464933	1.000529
328.858929	0.999002
329.252859	0.998863
329.646726	0.999396
330.040528	0.999505
330.434265	0.998816
330.827938	1.000050
331.221547	1.000810
331.615091	1.001374
332.008571	1.001103
332.401986	1.000686
332.795338	0.999431
333.188625	0.998483
333.581847	1.000195
333.975006	1.000224
334.368100	0.998968
334.761129	1.000489
335.154095	1.000218
335.546996	0.999015
335.939833	0.999742
336.332606	1.000678
336.725315	1.000922
337.117960	1.001662
337.510540	0.999296
337.903056	1.001072
338.295508	0.998810
338.687896	0.999981
339.080220	1.000499
339.472480	1.000102
339.864676	0.999979
340.256807	0.999691
340.648875	1.000054
341.040879	1.000137
341.432818	0.999926
341.824694	1.000452
342.216506	1.000455
342.608253	0.999766
342.999937	0.999385
343.391557	0.999162
343.783113	0.999705
344.174605	0.999575
344.566033	1.001151
344.957397	0.999001
345.348697	0.998948
345.739934	0.999250
346.131106	0.999721
346.522215	0.998501
346.913260	0.999841
347.304241	0.999924
347.695159	0.999581
348.086012	0.998420
348.476802	0.999795
348.867528	0.999804
349.258191	0.998633
349.648789	1.000634
350.039324	0.999933
350.429796	1.000231
350.820203	1.000550
351.210548	0.999071
351.600828	0.999903
351.991045	0.999264
352.381198	0.998250
352.771288	0.999028
353.161314	0.999665
353.551276	1.002044
353.941175	0.999932
354.331010	1.000075
354.720782	1.000580
355.110490	0.999523
355.500135	1.000191
355.889717	0.999640
356.279235	1.000456
356.668689	0.999708
357.058080	0.998507
357.447408	1.000569
357.836672	0.999821
358.225873	1.000353
358.615010	0.999535
359.004084	1.000259
359.393095	1.000560
359.782043	0.999778
360.170927	1.000983
360.559748	0.999937
360.948505	0.999394
361.337199	1.001386
361.725830	1.000439
362.114398	1.000418
362.502903	0.999704
362.891344	1.000805
363.279722	0.999014
363.668037	1.000722
364.056289	1.000616
364.444478	1.001238
364.832603	0.999619
365.220665	0.999826
365.608665	0.999862
365.996601	0.999644
366.384474	1.000659
366.772284	1.001135
367.160031	0.999014
367.547715	0.999292
367.935336	0.999329
368.322893	0.999503
368.710388	0.999061
369.097820	1.000279
369.485189	0.999873
369.872495	0.999221
370.259738	0.999454
370.646918	1.000993
371.034035	1.001649
371.421090	0.999481
371.808081	1.000097
372.195010	0.999243
372.581875	1.000643
372.968678	1.000179
373.355418	1.000605
373.742096	0.999781
374.128710	1.000639
374.515262	0.999307
374.901751	1.000508
375.288177	1.000446
375.674540	1.000348
376.060841	0.999170
376.447079	1.000677
376.833254	1.000220
377.219367	1.000953
377.605417	0.999240
377.991404	1.000000
378.377329	0.999566
378.763191	0.999898
379.148991	0.999724
379.534727	1.001081
379.920402	0.999955
380.306013	1.000686
380.691563	1.000918
381.077049	0.999907
381.462474	1.000634
381.847835	1.000056
382.233134	0.999194
382.618371	0.999376
383.003545	0.999818
383.388657	1.000213
383.773706	1.000846
384.158693	0.999499
384.543618	0.998929
384.928480	1.000920
385.313280	1.000227
385.698017	1.001268
386.082692	1.000815
386.467305	1.000300
386.851856	0.999268
387.236344	1.000019
387.620770	0.999086
388.005133	1.000501
388.389435	1.001214
388.773674	0.999995
389.157851	1.000130
389.541965	1.000594
389.926018	0.999817
390.310008	1.001239
390.693936	0.999437
391.077802	0.999982
391.461606	1.000382
391.845348	0.999553
392.229027	1.001054
392.612645	1.000060
392.996200	1.001112
393.379694	0.999267
393.763125	1.001402
394.146494	1.000229
394.529801	0.999648
394.913047	1.000906
395.296230	1.000190
395.679351	1.000173
396.062410	0.999531
396.445408	1.000486
396.828343	1.000507
397.211217	0.999156
397.594028	1.000742
397.976778	1.000117
398.359466	0.999913
398.742092	1.000238
399.124656	0.998423
399.507158	1.000043
399.889598	1.000223
400.271977	1.000745
400.654294	1.001044
401.036549	1.000596
401.418742	1.001095
401.800874	1.000551
402.182944	1.000332
402.564952	0.999468
402.946898	1.000515
403.328783	1.000009
403.710606	1.000479
404.092367	0.999775
404.474067	1.001076
404.855705	0.999679
405.237282	1.001067
405.618797	1.000415
406.000250	0.999549
406.381642	1.000630
406.762972	1.000514
407.144240	1.001012
407.525447	1.000802
407.906593	0.999837
408.287677	1.000525
408.668700	1.000837
409.049661	0.999559
409.430560	0.999935
409.811399	0.999434
410.192176	1.000435
410.572891	1.000016
410.953545	1.000318
411.334138	0.998988
411.714669	1.000451
412.095139	1.000431
412.475547	1.000810
412.855894	1.000800
413.236180	1.000760
413.616405	1.000098
413.996568	1.000332
414.376670	0.999645
414.756711	0.999769
415.136691	1.000488
415.516609	1.000462
415.896466	1.000416
416.276262	0.998789
416.655997	1.000341
417.035670	0.999753
417.415283	0.999388
417.794834	0.999390
418.174324	0.999812
418.553753	1.001251
418.933121	1.000537
419.312428	0.999914
419.691674	1.000003
420.070859	1.000187
420.449983	1.000267
420.829045	1.000932
421.208047	1.000950
421.586988	1.001639
421.965867	0.999942
422.344686	1.001282
422.723444	1.000439
423.102141	1.000034
423.480777	1.000034
423.859352	1.000270
424.237866	0.999577
424.616319	1.000199
424.994712	1.000295
425.373044	1.000710
425.751314	0.999648
426.129524	0.999942
426.507673	1.000104
426.885762	1.001387
427.263789	1.000560
427.641756	1.000412
428.019662	1.001085
428.397508	0.999110
428.775292	0.999621
429.153016	1.000779
429.530679	1.000685
429.908282	1.001099
430.285824	0.999857
430.663305	1.000292
431.040726	0.999501
431.418086	1.001336
431.795385	1.000392
432.172624	0.999621
432.549802	1.000179
432.926920	1.000447
433.303977	1.000329
433.680974	1.001073
434.057910	1.000128
434.434786	1.000531
434.811601	1.000290
435.188355	0.999542
435.565050	0.999373
435.941683	0.999896
436.318257	1.001129
436.694770	0.999820
437.071222	1.000942
437.447614	1.000696
437.823946	0.999677
438.200218	1.000014
438.576429	1.000457
438.952580	0.999888
439.328670	1.000248
439.704700	1.001021
440.080670	1.000171
440.456580	1.000017
440.832429	0.999708
441.208218	1.000165
441.583947	1.000664
441.959616	1.000381
442.335224	0.999985
442.710773	1.001490
443.086261	0.999239
443.461689	1.000490
443.837057	1.000289
444.212365	1.000433
444.587612	0.999970
444.962800	1.000345
445.337927	1.000206
445.712995	1.000302
446.088002	1.001096
446.462949	1.001240
446.837837	1.000208
447.212664	1.000845
447.587431	1.000688
447.962139	1.000010
448.336786	1.000044
448.711374	1.000903
449.085901	1.000389
449.460369	1.000712
449.834776	0.999846
450.209124	1.000643
450.583412	1.000150
450.957640	1.000693
451.331808	0.999697
451.705917	1.000213
452.079965	0.999944
452.453954	1.000154
452.827883	0.999729
453.201752	1.000055
453.575562	1.000877
453.949311	1.000565
454.323001	1.000390
454.696632	0.999940
455.070202	0.999685
455.443713	0.999452
455.817164	0.999856
456.190556	1.000648
456.563888	1.000064
456.937160	0.999729
457.310373	0.999757
457.683526	0.999999
458.056619	1.000114
458.429653	1.001231
458.802628	1.000189
459.175542	1.000312
459.548398	0.999975
459.921194	0.999789
460.293930	1.000182
460.666607	0.999994
461.039224	0.999134
461.411782	0.999978
461.784280	0.999560
462.156719	1.000840
462.529099	1.000083
462.901419	1.000225
463.273680	0.999409
463.645882	1.000557
464.018024	1.000141
464.390106	0.999453
464.762130	1.000590
465.134094	0.999950
465.505999	1.000521
465.877845	0.999900
466.249631	1.001104
466.621358	1.000048
466.993026	1.000496
467.364634	0.999858
467.736184	1.000341
468.107674	0.999753
468.479105	0.999377
468.850477	0.999777
469.221790	1.000261
469.593043	0.999822
469.964238	1.000782
470.335373	0.999418
470.706449	1.000125
471.077467	1.000686
471.448425	1.000009
471.819324	1.000554
472.190164	0.999946
472.560945	1.000533
472.931667	0.999843
473.302330	0.999992
473.672934	1.000251
474.043479	1.000269
474.413965	0.999771
474.784393	0.999689
475.154761	1.000144
475.525070	0.999553
475.895321	1.000312
476.265513	1.000345
476.635645	0.999784
477.005719	1.000066
477.375734	0.998848
477.745691	1.000225
478.115588	0.999514
478.485427	1.000733
478.855207	0.999704
479.224928	0.999873
479.594591	0.999824
479.964194	1.000629
480.333739	1.000315
480.703226	1.000005
481.072653	1.000837
481.442022	1.000688
481.811333	0.999293
482.180584	1.000761
482.549777	0.999786
482.918912	1.000209
483.287988	1.000120
483.657005	0.999796
484.025964	1.001233
484.394864	1.001034
484.763706	1.000565
485.132489	1.000271
485.501213	0.999524
485.869879	1.000086
486.238487	1.000242
486.607036	1.000925
486.975527	1.000223
487.343959	0.999862
487.712333	0.999938
488.080648	0.999863
488.448905	1.000853
488.817104	1.000787
489.185244	1.000038
489.553326	0.999797
489.921350	0.999747
490.289315	1.000409
490.657222	1.000468
491.025070	1.000311
491.392861	1.000893
491.760593	1.000576
492.128267	1.000465
492.495883	0.999920
492.863440	1.000230
493.230939	1.000525
493.598380	1.000379
493.965763	1.000167
494.333088	1.000514
494.700354	0.999801
495.067563	1.000580
495.434713	1.000235
495.801805	1.000498
496.168839	1.000409
496.535815	1.000165
496.902733	1.000165
497.269593	0.999935
497.636395	1.000493
498.003139	1.000454
498.369825	1.000802
498.736453	1.000625
499.103023	0.999447
499.469535	0.999710
499.835989	1.000115
500.202385	1.000849
500.568723	1.000790
500.935003	1.000286
501.301226	1.000970
501.667390	1.000380
502.033497	1.000637
502.399546	1.000517
502.765537	0.999447
503.131470	0.999805
503.497345	1.000257
503.863163	1.000996
504.228923	1.000485
504.594625	1.000198
504.960269	1.000867
505.325856	1.000522
505.691385	0.999888
506.056856	1.000140
506.422270	0.999739
506.787625	1.000748
507.152924	1.000382
507.518164	0.999894
507.883347	1.000168
508.248472	1.000371
508.613540	1.000151
508.978550	1.000583
509.343503	0.999640
509.708398	1.000679
510.073236	1.000721
510.438016	1.000685
510.802738	0.999981
511.167403	1.000719
511.532010	1.000475
511.896561	1.000150
512.261053	1.000681
512.625488	0.999212
512.989866	1.000551
513.354186	0.999896
513.718449	1.000117
514.082655	1.000869
514.446803	1.000489
514.810894	1.000493
515.174927	1.000441
515.538904	1.000435
515.902822	0.999545
516.266684	1.001176
516.630488	1.001017
516.994235	0.999639
517.357925	1.000352
517.721558	1.000472
518.085133	0.999452
518.448651	1.001755
518.812112	1.000118
519.175516	1.000171
519.538863	1.001026
519.902152	0.999500
520.265385	1.000677
520.628560	1.000048
520.991678	1.000934
521.354739	1.000804
521.717743	1.000669
522.080690	1.000570
522.443580	1.000229
522.806413	1.000027
523.169189	1.000249
523.531908	0.999811
523.894569	1.000298
524.257174	1.000414
524.619722	1.000590
524.982213	1.000774
525.344647	1.000256
525.707025	0.999349
526.069345	1.000167
526.431608	1.000219
526.793815	1.001217
527.155964	1.000594
527.518057	1.000959
527.880093	1.000638
528.242072	0.999926
528.603995	1.000923
528.965860	1.001079
529.327669	1.000271
529.689421	0.999943
530.051117	1.001019
530.412755	1.000326
530.774337	1.000661
531.135862	0.999708
531.497331	1.000566
531.858743	1.000609
532.220098	1.000505
532.581396	1.000760
532.942638	1.000817
533.303824	1.001009
533.664953	1.000273
534.026025	1.000876
534.387040	1.000371
534.747999	1.000585
535.108902	1.000826
535.469748	1.000283
535.830537	1.000430
536.191270	1.000584
536.551947	1.000331
536.912567	1.000917
537.273131	1.000850
537.633638	1.000218
537.994089	1.000865
538.354483	1.000569
538.714821	1.000290
539.075103	0.999972
539.435328	1.000469
539.795497	1.000942
540.155609	1.000094
540.515665	1.000375
540.875665	1.000308
541.235609	0.999913
541.595496	0.999865
541.955328	0.999657
542.315102	1.000465
542.674821	0.999894
543.034483	0.998896
543.394090	0.999650
543.753640	1.000575
544.113134	1.000716
544.472571	1.001284
544.831953	1.000458
545.191278	1.000010
545.550548	1.001179
545.909761	0.999805
546.268918	1.000163
546.628019	0.999855
546.987064	1.000010
547.346053	0.999615
547.704986	1.000617
548.063863	1.000514
548.422684	1.000283
548.781449	1.000620
549.140158	1.000173
549.498811	1.001153
549.857408	1.000584
550.215949	1.000789
550.574434	0.999754
550.932864	1.000525
551.291237	1.000934
551.649555	1.000236
552.007817	1.000216
552.366022	1.000122
552.724173	1.000846
553.082267	1.000272
553.440305	1.000995
553.798288	1.000317
554.156215	1.000155
554.514086	1.000857
554.871902	0.999986
555.229661	0.999789
555.587365	0.999951
555.945014	1.001332
556.302606	1.000300
556.660143	0.999625
557.017625	1.000136
557.375050	1.000171
557.732421	1.000321
558.089735	1.000655
558.446994	1.001600
558.804197	1.001255
559.161345	1.000789
559.518437	1.000496
559.875474	1.000353
560.232455	1.000723
560.589381	1.000511
560.946251	0.999269
561.303065	1.000433
561.659825	0.999963
562.016528	1.000205
562.373177	1.000436
562.729770	0.999788
563.086307	1.000745
563.442789	1.000827
563.799216	0.999934
564.155587	1.000225
564.511904	0.999876
564.868164	0.999795
565.224370	1.000173
565.580520	1.000572
565.936615	1.000110
566.292654	1.000108
566.648638	1.000240
567.004567	1.000146
567.360441	1.000251
567.716260	1.000271
568.072023	0.999998
568.427732	1.000351
568.783385	1.000390
569.138982	1.000796
569.494525	1.000348
569.850013	1.000192
570.205445	1.000116
570.560823	1.000440
570.916145	1.000268
571.271412	1.000451
571.626625	1.000160
571.981782	0.999819
572.336884	1.000180
572.691931	1.000553
573.046923	0.999542
573.401860	1.000293
573.756743	1.000042
574.111570	1.000615
574.466342	1.000951
574.821059	1.000498
575.175722	0.999575
575.530330	1.000794
575.884882	0.999761
576.239380	1.000242
576.593823	1.000247
576.948211	1.000250
577.302544	1.000130
577.656823	0.999489
578.011047	1.000736
578.365216	1.000046
578.719330	0.999488
579.073389	1.000801
579.427394	0.999801
579.781344	1.000008
580.135239	0.999866
580.489080	0.999741
580.842866	1.000179
581.196597	0.999617
581.550273	0.998939
581.903895	1.000672
582.257463	0.999384
582.610975	0.999943
582.964434	1.000628
583.317837	1.000382
583.671186	1.000003
584.024481	0.999491
584.377721	1.000476
584.730906	0.999948
585.084037	1.000231
585.437113	1.000195
585.790135	0.999674
586.143103	0.999837
586.496016	1.000756
586.848874	0.999598
587.201679	0.999579
587.554428	0.999969
587.907124	0.999912
588.259765	1.000032
588.612352	1.000261
588.964884	1.000049
589.317362	0.999857
589.669786	0.999667
590.022155	0.999889
590.374470	1.000087
590.726731	1.000295
591.078937	0.999222
591.431090	0.999659
591.783188	0.998904
592.135232	1.000666
592.487222	0.999922
592.839157	0.999467
593.191038	1.000235
593.542866	1.000035
593.894639	0.999852
594.246358	0.999549
594.598022	0.999282
594.949633	1.000330
595.301190	0.999820
595.652692	0.999588
596.004141	1.001069
596.355535	1.000188
596.706876	0.999404
597.058162	1.000153
597.409395	0.999998
597.760573	0.999913
598.111698	0.999646
598.462768	0.998569
598.813785	0.999090
599.164748	0.999432
599.515657	0.998658
599.866511	0.999659
600.217312	0.999034
600.568060	0.999586
600.918753	0.999973
601.269392	0.999766
601.619978	0.999750
601.970510	0.999643
602.320988	1.000082
602.671412	0.999141
603.021783	1.000056
603.372100	1.000742
603.722363	1.000661
604.072572	0.999752
604.422728	0.999631
604.772830	0.999427
605.122878	0.999098
605.472872	0.999677
605.822813	0.998573
606.172701	0.999660
606.522534	1.000450
606.872314	0.999572
607.222041	0.998786
607.571714	0.999298
607.921333	0.998428
608.270899	0.999455
608.620411	1.000112
608.969870	1.000039
609.319276	0.999038
609.668627	0.999547
610.017926	0.998991
610.367171	0.999205
610.716362	0.999105
611.065500	0.999341
611.414585	0.999141
611.763616	0.999169
612.112594	0.999613
612.461518	0.999204
612.810389	0.999730
613.159207	1.000389
613.507971	0.999446
613.856682	0.999787
614.205340	0.999959
614.553945	0.999008
614.902496	0.999365
615.250994	0.999475
615.599439	0.999725
615.947830	0.999540
616.296169	0.999405
616.644454	0.998828
616.992686	0.999209
617.340864	0.999603
617.688990	0.999716
618.037063	0.999827
618.385082	0.999333
618.733048	0.999119
619.080961	0.999761
619.428821	0.999581
619.776628	0.999061
620.124382	0.999170
620.472083	0.999440
620.819731	0.999605
621.167326	0.999521
621.514868	0.998867
621.862357	0.999206
622.209793	0.999794
622.557176	0.998277
622.904506	0.999443
623.251783	0.999406
623.599007	0.999296
623.946179	1.000207
624.293297	1.000068
624.640363	0.999628
624.987376	0.998828
625.334336	1.000007
625.681243	0.999244
626.028097	0.999723
626.374899	0.999473
626.721647	0.999833
627.068343	0.999791
627.414987	0.998888
627.761577	0.999643
628.108115	0.999503
628.454600	0.999567
628.801032	0.998932
629.147412	0.998781
629.493739	0.999379
629.840014	0.999060
630.186236	0.999560
630.532405	0.999538
630.878521	0.999495
631.224585	0.999665
631.570597	0.999160
631.916556	0.999541
632.262462	0.999687
632.608316	0.999901
632.954117	0.998607
633.299866	0.999376
633.645562	0.999478
633.991206	0.999870
634.336797	1.000296
634.682336	0.999127
635.027823	0.999821
635.373257	0.999856
635.718639	0.999301
636.063968	0.998998
636.409245	0.999069
636.754470	0.998859
637.099642	1.000144
637.444762	1.000287
637.789829	0.998928
638.134845	0.999508
638.479808	0.999042
638.824719	0.999745
639.169577	0.998987
639.514383	0.999196
639.859137	0.999222
640.203839	0.999461
640.548489	0.998729
640.893086	0.999774
641.237632	0.999831
641.582125	0.998496
641.926566	0.997614
642.270955	0.998649
642.615292	0.999761
642.959576	0.999403
643.303809	0.999128
643.647990	0.998920
643.992118	0.998773
644.336195	0.999684
644.680219	0.999514
645.024192	0.999113
645.368112	0.998585
645.711981	0.999481
646.055797	0.999108
646.399562	0.999096
646.743274	0.997967
647.086935	0.998344
647.430544	0.998862
647.774101	0.998541
648.117606	0.998784
648.461059	0.998898
648.804460	0.998660
649.147810	0.998372
649.491108	0.998995
649.834354	0.999308
650.177548	0.999477
650.520690	0.999761
650.863781	0.999275
651.206820	0.999182
651.549807	0.999118
651.892742	0.998755
652.235626	0.999395
652.578458	0.999493
652.921238	0.999189
653.263967	0.999728
653.606644	0.999876
653.949269	0.999417
654.291843	0.998913
654.634365	0.999164
654.976836	0.999795
655.319255	0.999438
655.661622	0.999742
656.003938	0.999061
656.346203	0.999686
656.688416	0.999155
657.030577	1.000111
657.372687	0.998946
657.714746	0.998009
658.056753	0.998991
658.398708	0.999215
658.740612	0.999097
659.082465	0.998846
659.424266	0.999845
659.766016	0.997938
660.107715	0.998366
660.449362	0.999595
660.790958	0.999161
661.132503	0.998692
661.473996	0.999704
661.815438	0.999208
662.156829	0.998492
662.498168	0.998842
662.839456	0.999192
663.180693	0.999539
663.521879	0.999504
663.863013	1.000156
664.204097	0.998584
664.545129	0.999930
664.886110	0.999173
665.227040	0.998760
665.567918	0.999304
665.908746	0.999659
666.249522	0.999435
666.590248	0.999197
666.930922	0.999278
667.271545	0.998925
667.612118	0.999199
667.952639	0.999695
668.293109	0.999243
668.633528	0.999348
668.973896	0.999810
669.314213	0.998175
669.654480	0.999167
669.994695	0.999413
670.334859	0.998771
670.674973	0.998419
671.015035	0.999111
671.355047	0.999150
671.695008	0.999841
672.034918	0.998154
672.374777	0.999349
672.714585	0.999084
673.054342	0.999097
673.394049	0.998967
673.733705	0.999106
674.073310	1.000076
674.412864	0.999401
674.752368	0.999179
675.091820	0.999709
675.431223	0.998903
675.770574	0.997758
676.109875	0.998361
676.449125	0.999002
676.788324	0.999197
677.127473	1.000299
677.466571	0.998814
677.805619	0.998885
678.144616	0.999074
678.483562	0.998177
678.822458	0.998525
679.161303	1.000193
679.500098	0.999191
679.838842	1.000609
680.177535	0.999967
680.516179	0.999463
680.854771	0.999204
681.193314	0.999678
681.531805	0.999235
681.870247	0.998827
682.208638	0.999889
682.546978	0.998792
682.885268	0.999049
683.223508	0.999189
683.561697	0.998644
683.899836	0.999026
684.237925	0.999386
684.575963	0.998327
684.913951	0.998815
685.251889	0.999816
685.589776	0.999056
685.927614	0.999041
686.265401	0.999492
686.603137	0.997922
686.940824	0.998893
687.278460	0.999069
687.616046	0.998838
687.953582	0.998986
688.291068	0.999326
688.628504	0.999584
