Dividing Wavelength (nm)	Counts (n)	Blue Motor Position (mm): 0.000000	Red Motor Position (mm): 49.300000	
326.493990	1.000852
326.888308	1.000852
327.282561	1.000852
327.676750	1.000352
328.070874	1.000577
328.464933	0.999704
328.858929	0.998200
329.252859	1.000074
329.646726	0.999738
330.040528	1.000519
330.434265	0.999316
330.827938	1.000128
331.221547	1.000067
331.615091	1.001365
332.008571	1.000923
332.401986	1.000966
332.795338	1.000542
333.188625	0.998274
333.581847	1.001345
333.975006	1.000460
334.368100	1.000072
334.761129	0.999903
335.154095	1.000678
335.546996	1.000238
335.939833	0.998676
336.332606	1.000060
336.725315	1.000702
337.117960	1.001868
337.510540	1.000163
337.903056	1.001204
338.295508	0.998680
338.687896	1.001153
339.080220	1.000657
339.472480	1.001079
339.864676	1.000609
340.256807	1.000738
340.648875	1.000898
341.040879	1.000563
341.432818	0.999592
341.824694	1.000730
342.216506	1.001562
342.608253	1.001476
342.999937	1.001085
343.391557	1.000501
343.783113	1.000236
344.174605	1.000626
344.566033	1.001066
344.957397	1.000007
345.348697	1.000170
345.739934	1.000037
346.131106	0.999394
346.522215	0.999237
346.913260	0.999276
347.304241	1.000639
347.695159	1.000483
348.086012	0.999045
348.476802	1.000079
348.867528	0.999381
349.258191	0.999171
349.648789	1.001249
350.039324	1.000552
350.429796	1.000546
350.820203	1.001328
351.210548	0.999647
351.600828	1.000953
351.991045	0.999573
352.381198	0.998868
352.771288	0.999917
353.161314	1.000409
353.551276	1.001057
353.941175	1.000605
354.331010	1.000626
354.720782	0.999716
355.110490	0.999794
355.500135	1.001217
355.889717	1.000552
356.279235	0.999737
356.668689	1.001164
357.058080	1.000785
357.447408	1.001483
357.836672	1.000662
358.225873	1.001564
358.615010	1.000261
359.004084	1.001731
359.393095	1.000096
359.782043	1.000744
360.170927	1.001116
360.559748	1.000577
360.948505	0.999706
361.337199	0.999045
361.725830	1.001192
362.114398	1.001398
362.502903	1.000615
362.891344	1.001326
363.279722	1.000600
363.668037	1.000741
364.056289	1.001211
364.444478	1.000804
364.832603	1.000960
365.220665	0.999973
365.608665	0.999461
365.996601	1.000646
366.384474	1.001941
366.772284	1.001170
367.160031	0.999607
367.547715	0.998840
367.935336	0.999958
368.322893	1.000587
368.710388	0.999667
369.097820	0.999927
369.485189	1.000219
369.872495	1.000218
370.259738	0.998969
370.646918	1.001528
371.034035	1.001250
371.421090	1.000207
371.808081	1.000327
372.195010	1.000802
372.581875	1.000056
372.968678	0.999231
373.355418	0.999628
373.742096	0.999362
374.128710	1.000357
374.515262	0.999903
374.901751	0.999311
375.288177	1.000576
375.674540	1.000234
376.060841	0.999748
376.447079	1.000924
376.833254	0.999851
377.219367	0.999267
377.605417	0.999850
377.991404	1.001150
378.377329	1.000264
378.763191	1.000305
379.148991	1.001326
379.534727	1.001090
379.920402	1.000911
380.306013	1.000602
380.691563	1.001601
381.077049	1.000090
381.462474	1.001146
381.847835	1.000252
382.233134	0.999933
382.618371	1.000305
383.003545	0.999963
383.388657	0.999616
383.773706	1.000906
384.158693	1.000686
384.543618	0.999880
384.928480	1.001129
385.313280	1.000890
385.698017	1.001629
386.082692	1.001383
386.467305	1.000127
386.851856	0.999952
387.236344	1.000395
387.620770	0.999396
388.005133	1.000415
388.389435	1.001644
388.773674	1.001230
389.157851	1.000902
389.541965	1.000527
389.926018	0.999777
390.310008	1.001368
390.693936	0.999749
391.077802	1.000253
391.461606	1.000521
391.845348	1.000612
392.229027	1.001075
392.612645	1.001080
392.996200	1.001361
393.379694	0.999905
393.763125	1.000832
394.146494	1.000536
394.529801	0.998927
394.913047	1.001325
395.296230	1.001002
395.679351	1.000820
396.062410	1.000290
396.445408	1.000928
396.828343	1.000154
397.211217	1.000001
397.594028	1.000521
397.976778	1.000344
398.359466	1.000281
398.742092	0.999771
399.124656	1.000914
399.507158	1.000027
399.889598	1.001077
400.271977	1.000062
400.654294	1.000421
401.036549	1.001339
401.418742	1.001530
401.800874	0.999938
402.182944	0.999931
402.564952	1.000416
402.946898	1.000330
403.328783	1.001076
403.710606	1.001123
404.092367	1.001173
404.474067	1.000566
404.855705	1.000368
405.237282	1.000722
405.618797	1.001161
406.000250	1.000095
406.381642	1.000539
406.762972	1.000977
407.144240	1.001198
407.525447	1.000876
407.906593	1.000885
408.287677	1.000291
408.668700	1.001323
409.049661	1.000040
409.430560	1.001821
409.811399	1.000377
410.192176	1.000671
410.572891	1.000900
410.953545	0.999873
411.334138	0.999769
411.714669	1.000714
412.095139	0.999398
412.475547	1.001165
412.855894	1.000566
413.236180	1.001065
413.616405	1.000584
413.996568	1.000699
414.376670	1.000479
414.756711	1.000816
415.136691	1.000601
415.516609	1.001077
415.896466	1.000640
416.276262	0.999445
416.655997	1.000309
417.035670	1.000437
417.415283	1.000654
417.794834	1.000065
418.174324	1.000522
418.553753	1.000568
418.933121	1.000186
419.312428	1.000411
419.691674	1.000821
420.070859	1.000730
420.449983	1.000822
420.829045	1.000413
421.208047	1.000473
421.586988	1.001145
421.965867	1.000402
422.344686	1.000867
422.723444	1.000299
423.102141	1.000657
423.480777	1.000466
423.859352	1.000804
424.237866	1.000229
424.616319	1.000841
424.994712	1.000600
425.373044	1.000978
425.751314	1.001148
426.129524	1.000758
426.507673	1.000500
426.885762	1.001254
427.263789	1.000423
427.641756	1.000712
428.019662	1.001128
428.397508	0.999734
428.775292	0.999673
429.153016	1.000564
429.530679	1.000766
429.908282	1.001266
430.285824	1.000118
430.663305	0.999792
431.040726	1.000380
431.418086	1.002138
431.795385	1.001479
432.172624	1.000771
432.549802	1.000819
432.926920	1.000320
433.303977	0.999371
433.680974	1.000655
434.057910	1.000528
434.434786	1.000997
434.811601	0.999531
435.188355	1.000415
435.565050	1.000026
435.941683	1.000431
436.318257	1.001726
436.694770	1.000220
437.071222	1.001170
437.447614	1.000639
437.823946	1.000277
438.200218	1.000944
438.576429	1.000968
438.952580	1.000805
439.328670	1.000208
439.704700	1.001117
440.080670	1.000652
440.456580	1.000315
440.832429	0.999954
441.208218	1.000620
441.583947	1.000425
441.959616	1.001177
442.335224	1.000525
442.710773	1.000943
443.086261	1.000370
443.461689	1.000126
443.837057	0.999866
444.212365	1.000809
444.587612	1.001273
444.962800	0.999572
445.337927	1.001018
445.712995	1.000257
446.088002	1.000531
446.462949	1.000647
446.837837	1.001478
447.212664	1.000843
447.587431	1.000550
447.962139	1.000014
448.336786	1.000738
448.711374	1.000432
449.085901	1.000164
449.460369	1.001160
449.834776	1.000727
450.209124	1.000631
450.583412	1.000863
450.957640	1.000287
451.331808	0.999578
451.705917	1.000212
452.079965	1.000117
452.453954	1.001300
452.827883	1.000504
453.201752	1.000233
453.575562	1.000895
453.949311	1.001141
454.323001	1.000050
454.696632	1.000729
455.070202	1.000406
455.443713	1.000064
455.817164	1.001067
456.190556	1.000676
456.563888	1.000779
456.937160	1.000442
457.310373	1.000085
457.683526	1.000015
458.056619	0.999974
458.429653	1.001131
458.802628	1.000066
459.175542	1.000174
459.548398	0.999878
459.921194	0.999853
460.293930	1.000601
460.666607	1.000090
461.039224	0.999678
461.411782	0.999851
461.784280	0.999981
462.156719	1.001035
462.529099	1.000786
462.901419	1.000352
463.273680	0.999696
463.645882	1.000285
464.018024	1.000634
464.390106	1.000428
464.762130	1.000864
465.134094	1.000590
465.505999	1.000974
465.877845	1.000770
466.249631	1.001005
466.621358	1.000675
466.993026	1.000990
467.364634	1.000991
467.736184	1.000094
468.107674	1.000064
468.479105	1.000410
468.850477	1.000626
469.221790	1.000414
469.593043	1.000516
469.964238	1.001042
470.335373	1.000335
470.706449	1.000890
471.077467	1.001031
471.448425	1.000573
471.819324	1.001131
472.190164	1.000141
472.560945	1.000524
472.931667	1.000370
473.302330	0.999902
473.672934	1.000401
474.043479	1.000735
474.413965	1.000609
474.784393	1.000985
475.154761	1.000401
475.525070	0.999734
475.895321	1.000898
476.265513	1.000821
476.635645	1.000609
477.005719	1.000572
477.375734	0.999647
477.745691	1.000410
478.115588	1.001187
478.485427	1.000445
478.855207	1.000803
479.224928	1.000750
479.594591	1.000592
479.964194	1.000517
480.333739	1.000588
480.703226	1.000857
481.072653	1.001373
481.442022	1.001111
481.811333	0.999851
482.180584	1.000645
482.549777	1.000786
482.918912	1.000271
483.287988	1.000573
483.657005	1.000669
484.025964	1.000948
484.394864	1.001216
484.763706	1.000882
485.132489	1.000947
485.501213	1.000562
485.869879	1.000764
486.238487	1.000615
486.607036	1.001328
486.975527	1.000178
487.343959	1.000584
487.712333	1.000193
488.080648	1.001092
488.448905	1.000889
488.817104	1.000933
489.185244	1.000622
489.553326	1.000711
489.921350	1.000010
490.289315	1.000500
490.657222	1.000863
491.025070	1.000924
491.392861	1.001393
491.760593	1.000951
492.128267	1.000937
492.495883	1.000007
492.863440	1.000358
493.230939	1.000426
493.598380	1.000580
493.965763	1.000459
494.333088	1.000590
494.700354	1.000034
495.067563	1.000470
495.434713	1.000636
495.801805	1.001445
496.168839	1.000607
496.535815	1.000384
496.902733	1.000892
497.269593	1.000398
497.636395	1.001298
498.003139	1.000508
498.369825	1.001019
498.736453	1.000281
499.103023	1.000287
499.469535	0.999752
499.835989	1.000221
500.202385	1.000533
500.568723	1.000216
500.935003	1.000827
501.301226	1.000626
501.667390	1.000515
502.033497	1.000932
502.399546	1.001059
502.765537	1.000198
503.131470	1.000171
503.497345	1.000153
503.863163	1.001146
504.228923	1.001175
504.594625	1.000859
504.960269	1.001226
505.325856	1.000340
505.691385	1.000605
506.056856	1.000778
506.422270	1.000093
506.787625	1.000386
507.152924	1.000905
507.518164	1.000564
507.883347	1.000591
508.248472	0.999974
508.613540	0.999950
508.978550	1.001313
509.343503	1.000554
509.708398	1.001254
510.073236	1.000802
510.438016	1.001221
510.802738	1.000434
511.167403	1.000734
511.532010	1.000712
511.896561	1.000265
512.261053	1.001023
512.625488	1.000079
512.989866	1.000505
513.354186	1.000460
513.718449	1.000587
514.082655	1.000443
514.446803	1.000316
514.810894	1.001470
515.174927	1.000863
515.538904	1.000372
515.902822	1.000163
516.266684	1.000475
516.630488	1.001599
516.994235	0.999706
517.357925	1.001082
517.721558	1.000500
518.085133	1.000256
518.448651	1.001517
518.812112	1.000857
519.175516	1.000790
519.538863	1.001427
519.902152	1.000391
520.265385	1.000510
520.628560	1.000306
520.991678	1.001076
521.354739	1.001026
521.717743	1.000664
522.080690	1.000655
522.443580	1.000722
522.806413	1.000696
523.169189	1.000257
523.531908	1.000370
523.894569	1.000505
524.257174	1.000867
524.619722	1.000817
524.982213	1.001280
525.344647	1.000730
525.707025	1.000686
526.069345	1.000393
526.431608	1.000333
526.793815	1.000877
527.155964	1.000419
527.518057	1.001162
527.880093	1.001107
528.242072	1.000460
528.603995	1.000645
528.965860	1.001655
529.327669	1.000483
529.689421	1.000694
530.051117	1.001128
530.412755	1.000581
530.774337	1.001440
531.135862	1.000524
531.497331	1.000308
531.858743	1.000819
532.220098	1.001373
532.581396	1.000867
532.942638	1.000613
533.303824	1.000911
533.664953	1.000738
534.026025	1.000773
534.387040	1.000128
534.747999	1.000686
535.108902	1.000905
535.469748	1.000731
535.830537	1.000497
536.191270	1.000699
536.551947	1.000426
536.912567	1.000909
537.273131	1.001539
537.633638	1.000010
537.994089	1.000506
538.354483	1.000692
538.714821	1.001085
539.075103	1.000358
539.435328	1.000891
539.795497	1.000471
540.155609	1.000225
540.515665	1.000536
540.875665	1.000830
541.235609	1.000548
541.595496	1.000125
541.955328	1.000514
542.315102	1.000698
542.674821	1.000166
543.034483	0.999798
543.394090	1.000080
543.753640	1.001116
544.113134	1.001088
544.472571	1.000999
544.831953	1.001098
545.191278	1.000534
545.550548	1.001169
545.909761	1.000751
546.268918	1.000862
546.628019	1.000834
546.987064	0.999944
547.346053	1.001077
547.704986	1.000845
548.063863	1.000944
548.422684	1.000752
548.781449	1.001143
549.140158	1.000164
549.498811	1.000694
549.857408	1.000927
550.215949	1.000625
550.574434	1.000014
550.932864	1.000982
551.291237	1.001297
551.649555	1.000877
552.007817	1.000877
552.366022	0.999918
552.724173	1.000833
553.082267	1.001035
553.440305	1.000457
553.798288	1.000778
554.156215	1.000219
554.514086	1.000765
554.871902	1.000527
555.229661	1.000491
555.587365	1.001134
555.945014	1.001433
556.302606	1.000431
556.660143	1.001156
557.017625	1.000460
557.375050	1.000466
557.732421	1.000633
558.089735	1.000734
558.446994	1.001127
558.804197	1.001077
559.161345	1.001271
559.518437	1.001384
559.875474	1.000304
560.232455	0.999655
560.589381	1.001168
560.946251	0.999919
561.303065	1.000576
561.659825	1.000639
562.016528	1.000994
562.373177	1.000535
562.729770	1.000192
563.086307	1.001384
563.442789	1.000490
563.799216	1.000320
564.155587	1.000014
564.511904	1.000074
564.868164	1.000380
565.224370	1.000801
565.580520	1.000408
565.936615	1.000421
566.292654	1.000874
566.648638	1.000882
567.004567	1.000159
567.360441	1.000737
567.716260	1.000371
568.072023	1.000713
568.427732	1.000418
568.783385	1.000720
569.138982	1.001042
569.494525	1.000135
569.850013	1.000376
570.205445	1.000730
570.560823	1.000215
570.916145	1.000421
571.271412	1.000126
571.626625	1.000350
571.981782	1.000231
572.336884	1.001937
572.691931	0.999848
573.046923	1.000178
573.401860	1.000458
573.756743	1.000350
574.111570	1.000779
574.466342	1.000975
574.821059	1.000978
575.175722	1.000608
575.530330	1.001021
575.884882	1.000756
576.239380	1.000976
576.593823	1.000140
576.948211	1.001106
577.302544	1.000421
577.656823	1.000551
578.011047	1.000760
578.365216	1.000461
578.719330	1.000198
579.073389	1.000636
579.427394	1.000469
579.781344	1.000484
580.135239	1.000826
580.489080	1.000629
580.842866	1.000945
581.196597	1.000636
581.550273	1.000252
581.903895	1.000620
582.257463	1.000335
582.610975	1.000099
582.964434	1.000162
583.317837	1.001284
583.671186	1.000649
584.024481	1.000391
584.377721	1.000367
584.730906	1.000734
585.084037	1.000345
585.437113	1.000155
585.790135	1.000187
586.143103	1.000026
586.496016	1.001606
586.848874	1.000732
587.201679	1.000923
587.554428	1.000073
587.907124	1.000907
588.259765	1.000415
588.612352	1.001127
588.964884	1.001066
589.317362	1.001020
589.669786	1.001199
590.022155	1.000530
590.374470	1.000037
590.726731	1.000627
591.078937	1.000452
591.431090	1.000436
591.783188	1.000832
592.135232	0.999994
592.487222	1.001154
592.839157	0.999892
593.191038	1.000580
593.542866	1.000445
593.894639	1.000831
594.246358	1.000458
594.598022	1.000287
594.949633	1.000527
595.301190	1.000160
595.652692	1.000640
596.004141	1.000760
596.355535	1.000609
596.706876	0.999916
597.058162	1.000645
597.409395	1.000791
597.760573	1.000351
598.111698	1.000479
598.462768	1.000117
598.813785	1.000646
599.164748	1.000292
599.515657	0.999987
599.866511	1.000228
600.217312	1.000008
600.568060	1.000422
600.918753	1.000876
601.269392	1.001022
601.619978	1.000614
601.970510	1.000579
602.320988	1.000475
602.671412	0.999527
603.021783	1.000477
603.372100	1.001411
603.722363	1.001188
604.072572	1.000432
604.422728	0.999915
604.772830	1.000148
605.122878	1.000401
605.472872	1.000880
605.822813	0.999912
606.172701	1.000663
606.522534	1.001199
606.872314	1.000724
607.222041	0.999934
607.571714	1.000822
607.921333	0.999834
608.270899	1.000020
608.620411	1.000333
608.969870	1.001213
609.319276	0.999253
609.668627	1.000632
610.017926	0.999625
610.367171	1.000164
610.716362	1.000384
611.065500	1.000207
611.414585	1.000009
611.763616	0.999945
612.112594	1.000152
612.461518	0.999583
612.810389	1.000630
613.159207	1.000911
613.507971	1.000508
613.856682	1.000861
614.205340	1.000224
614.553945	0.999737
614.902496	0.999709
615.250994	1.000420
615.599439	1.000614
615.947830	1.000050
616.296169	1.000272
616.644454	1.000041
616.992686	1.000637
617.340864	1.000044
617.688990	1.000982
618.037063	1.000176
618.385082	1.001225
618.733048	0.999831
619.080961	1.000772
619.428821	1.000909
619.776628	1.000030
620.124382	1.000137
620.472083	0.999549
620.819731	1.000520
621.167326	1.000377
621.514868	1.000849
621.862357	1.000633
622.209793	1.000691
622.557176	0.999336
622.904506	0.999975
623.251783	0.999859
623.599007	1.000506
623.946179	0.999803
624.293297	1.000065
624.640363	0.999802
624.987376	0.999408
625.334336	1.000914
625.681243	1.000249
626.028097	1.000888
626.374899	1.000801
626.721647	1.000249
627.068343	1.000359
627.414987	1.000116
627.761577	0.999891
628.108115	0.999924
628.454600	1.000430
628.801032	1.000339
629.147412	1.000370
629.493739	1.000267
629.840014	1.000612
630.186236	1.000488
630.532405	1.000687
630.878521	1.000385
631.224585	1.000536
631.570597	1.000751
631.916556	0.999965
632.262462	1.000631
632.608316	1.000080
632.954117	1.000033
633.299866	1.000487
633.645562	1.000194
633.991206	1.001021
634.336797	1.001445
634.682336	1.000847
635.027823	1.000823
635.373257	1.000665
635.718639	1.001047
636.063968	0.999993
636.409245	1.000376
636.754470	1.000820
637.099642	1.000813
637.444762	0.999983
637.789829	1.000250
638.134845	0.999788
638.479808	0.999037
638.824719	1.000653
639.169577	1.000242
639.514383	1.000030
639.859137	1.000459
640.203839	1.000876
640.548489	0.999726
640.893086	1.000531
641.237632	1.000795
641.582125	0.999318
641.926566	1.000268
642.270955	0.999702
642.615292	1.001118
642.959576	1.000189
643.303809	1.000033
643.647990	1.000577
643.992118	1.000279
644.336195	1.001002
644.680219	1.000875
645.024192	1.000554
645.368112	1.000303
645.711981	1.001141
646.055797	1.000796
646.399562	0.999958
646.743274	0.999107
647.086935	0.999413
647.430544	0.999822
647.774101	1.000614
648.117606	1.000437
648.461059	1.000025
648.804460	0.999269
649.147810	0.999515
649.491108	1.000718
649.834354	0.999024
650.177548	1.000540
650.520690	1.000048
650.863781	1.000265
651.206820	1.000613
651.549807	1.000530
651.892742	1.000298
652.235626	1.000794
652.578458	1.001071
652.921238	0.999794
653.263967	1.000198
653.606644	1.001655
653.949269	1.000002
654.291843	1.000614
654.634365	0.999454
654.976836	0.999910
655.319255	1.000051
655.661622	1.000991
656.003938	1.000028
656.346203	1.000423
656.688416	1.000618
657.030577	1.000597
657.372687	1.000165
657.714746	0.999861
658.056753	0.999507
658.398708	1.001386
658.740612	1.001112
659.082465	1.000146
659.424266	1.000476
659.766016	0.999804
660.107715	1.000132
660.449362	1.000589
660.790958	1.000249
661.132503	0.999333
661.473996	0.999613
661.815438	1.000172
662.156829	0.999482
662.498168	1.000665
662.839456	0.999626
663.180693	1.000229
663.521879	1.000381
663.863013	1.000177
664.204097	1.000932
664.545129	1.000714
664.886110	0.999957
665.227040	1.000311
665.567918	0.999868
665.908746	1.000398
666.249522	1.000580
666.590248	1.000707
666.930922	1.000751
667.271545	1.000001
667.612118	1.000733
667.952639	0.999678
668.293109	1.000031
668.633528	1.000071
668.973896	1.000650
669.314213	1.000171
669.654480	1.000157
669.994695	1.000225
670.334859	1.000450
670.674973	0.998570
671.015035	1.000325
671.355047	1.000223
671.695008	1.000262
672.034918	0.999910
672.374777	1.000939
672.714585	0.999412
673.054342	1.000630
673.394049	0.999804
673.733705	0.999316
674.073310	0.999607
674.412864	0.999590
674.752368	0.999162
675.091820	1.000833
675.431223	1.000042
675.770574	1.000590
676.109875	1.000148
676.449125	1.000242
676.788324	0.999908
677.127473	1.001571
677.466571	1.000309
677.805619	1.000507
678.144616	0.999856
678.483562	1.000041
678.822458	1.000445
679.161303	1.001179
679.500098	1.000242
679.838842	1.000980
680.177535	1.001035
680.516179	1.000336
680.854771	1.000646
681.193314	1.000409
681.531805	1.000278
681.870247	0.999381
682.208638	1.000143
682.546978	0.999722
682.885268	0.999867
683.223508	1.000557
683.561697	0.999769
683.899836	1.000388
684.237925	1.001021
684.575963	0.999693
684.913951	1.000523
685.251889	1.001490
685.589776	1.000868
685.927614	1.000070
686.265401	1.000382
686.603137	0.999531
686.940824	0.999723
687.278460	0.999796
687.616046	1.000253
687.953582	0.999914
688.291068	1.000632
688.628504	1.001230
