Dividing Wavelength (nm)	Counts (n)	Blue Motor Position (mm): 0.000000	Red Motor Position (mm): 46.400000	
326.493990	1.001277
326.888308	1.001277
327.282561	1.001277
327.676750	1.000901
328.070874	0.998756
328.464933	1.000863
328.858929	0.999325
329.252859	1.000056
329.646726	0.998650
330.040528	1.000849
330.434265	0.998979
330.827938	1.000736
331.221547	1.001715
331.615091	1.000332
332.008571	1.000460
332.401986	1.001139
332.795338	1.001732
333.188625	0.999418
333.581847	1.001276
333.975006	1.000637
334.368100	1.000989
334.761129	1.000072
335.154095	1.001629
335.546996	1.001102
335.939833	1.000042
336.332606	1.000583
336.725315	1.001325
337.117960	1.002142
337.510540	0.999544
337.903056	1.000754
338.295508	0.999495
338.687896	1.000895
339.080220	0.999491
339.472480	1.000875
339.864676	1.000227
340.256807	0.999874
340.648875	1.001786
341.040879	1.001757
341.432818	1.000020
341.824694	1.001129
342.216506	1.002257
342.608253	1.000690
342.999937	1.000014
343.391557	1.000246
343.783113	0.999123
344.174605	1.001192
344.566033	1.001414
344.957397	0.999854
345.348697	0.999261
345.739934	0.998896
346.131106	1.000345
346.522215	0.998906
346.913260	1.000310
347.304241	1.000900
347.695159	0.999905
348.086012	0.999123
348.476802	1.000035
348.867528	1.000259
349.258191	0.998705
349.648789	1.000346
350.039324	0.999490
350.429796	1.001811
350.820203	1.000402
351.210548	1.000645
351.600828	0.999988
351.991045	0.999573
352.381198	1.000705
352.771288	0.999378
353.161314	1.000656
353.551276	1.001339
353.941175	1.000558
354.331010	1.000049
354.720782	1.000742
355.110490	1.000466
355.500135	1.001058
355.889717	1.000256
356.279235	0.999845
356.668689	0.999824
357.058080	1.001414
357.447408	1.001345
357.836672	1.000958
358.225873	1.000734
358.615010	1.001718
359.004084	1.001377
359.393095	1.001945
359.782043	1.000079
360.170927	1.001603
360.559748	1.000839
360.948505	1.000959
361.337199	0.999658
361.725830	1.003196
362.114398	1.000352
362.502903	1.000758
362.891344	1.001056
363.279722	1.000054
363.668037	1.000643
364.056289	1.000438
364.444478	1.001248
364.832603	1.000949
365.220665	1.000673
365.608665	0.999886
365.996601	0.999842
366.384474	1.000587
366.772284	1.001705
367.160031	0.998609
367.547715	0.998156
367.935336	1.000124
368.322893	0.999688
368.710388	0.998394
369.097820	0.999738
369.485189	1.000057
369.872495	0.999365
370.259738	0.998782
370.646918	1.000968
371.034035	1.001225
371.421090	0.999214
371.808081	0.999682
372.195010	1.000169
372.581875	0.999815
372.968678	0.999487
373.355418	0.999568
373.742096	1.000400
374.128710	1.002042
374.515262	0.999711
374.901751	1.002050
375.288177	1.000918
375.674540	1.001091
376.060841	0.999062
376.447079	1.000358
376.833254	1.000347
377.219367	1.000900
377.605417	1.000657
377.991404	1.001034
378.377329	1.000523
378.763191	1.001021
379.148991	1.000514
379.534727	1.000537
379.920402	1.000579
380.306013	1.001469
380.691563	1.000494
381.077049	0.999563
381.462474	1.000735
381.847835	1.002040
382.233134	1.000311
382.618371	1.000982
383.003545	1.000359
383.388657	0.999681
383.773706	1.001085
384.158693	1.000302
384.543618	1.000790
384.928480	1.000833
385.313280	1.000414
385.698017	1.000856
386.082692	1.001262
386.467305	1.000517
386.851856	1.000159
387.236344	1.000283
387.620770	1.000508
388.005133	1.000229
388.389435	1.001298
388.773674	1.000126
389.157851	1.000626
389.541965	1.000785
389.926018	1.000010
390.310008	1.001160
390.693936	0.999553
391.077802	1.000568
391.461606	1.000367
391.845348	1.000393
392.229027	1.001704
392.612645	1.000417
392.996200	1.001971
393.379694	1.000045
393.763125	1.001504
394.146494	1.000550
394.529801	1.000917
394.913047	1.002545
395.296230	1.000510
395.679351	1.000889
396.062410	1.000286
396.445408	1.001090
396.828343	1.000275
397.211217	1.000507
397.594028	1.000410
397.976778	0.999822
398.359466	1.000343
398.742092	1.001523
399.124656	1.000696
399.507158	1.000889
399.889598	1.001339
400.271977	1.000730
400.654294	1.001777
401.036549	1.000840
401.418742	1.001180
401.800874	1.000284
402.182944	1.000483
402.564952	0.999706
402.946898	1.002002
403.328783	1.000504
403.710606	1.000389
404.092367	1.000364
404.474067	1.001221
404.855705	1.000871
405.237282	1.001594
405.618797	1.000584
406.000250	1.000315
406.381642	1.001094
406.762972	1.001339
407.144240	1.001803
407.525447	1.001244
407.906593	1.000905
408.287677	1.000863
408.668700	1.001339
409.049661	1.000664
409.430560	1.000980
409.811399	1.000654
410.192176	1.000585
410.572891	1.000191
410.953545	1.000067
411.334138	1.000555
411.714669	1.001724
412.095139	1.000688
412.475547	1.001274
412.855894	1.000894
413.236180	1.001302
413.616405	1.000931
413.996568	1.001484
414.376670	1.000383
414.756711	1.000838
415.136691	1.001142
415.516609	1.000501
415.896466	1.000242
416.276262	0.999831
416.655997	1.000807
417.035670	1.001019
417.415283	1.000761
417.794834	1.000849
418.174324	1.000318
418.553753	1.001618
418.933121	1.000541
419.312428	1.000503
419.691674	1.000963
420.070859	1.001217
420.449983	1.000806
420.829045	1.000456
421.208047	1.001635
421.586988	1.001401
421.965867	1.000846
422.344686	1.001584
422.723444	1.000670
423.102141	1.001096
423.480777	1.000565
423.859352	1.000875
424.237866	1.000993
424.616319	1.000694
424.994712	1.001621
425.373044	1.001669
425.751314	1.001094
426.129524	1.000711
426.507673	1.001079
426.885762	1.001347
427.263789	1.000956
427.641756	1.000009
428.019662	1.001826
428.397508	1.000036
428.775292	0.999401
429.153016	1.001021
429.530679	1.000859
429.908282	1.001467
430.285824	1.000417
430.663305	1.000680
431.040726	1.000298
431.418086	1.002277
431.795385	1.001268
432.172624	1.000284
432.549802	1.001386
432.926920	1.000788
433.303977	1.000506
433.680974	1.001064
434.057910	1.000485
434.434786	1.000538
434.811601	1.001061
435.188355	1.000103
435.565050	1.000044
435.941683	1.000992
436.318257	1.001995
436.694770	1.000098
437.071222	1.000905
437.447614	1.001102
437.823946	1.000750
438.200218	1.000979
438.576429	1.000927
438.952580	1.001493
439.328670	1.001219
439.704700	1.002196
440.080670	1.001587
440.456580	1.000997
440.832429	1.001081
441.208218	1.001501
441.583947	1.001637
441.959616	1.001650
442.335224	1.001393
442.710773	1.001836
443.086261	1.001127
443.461689	1.000996
443.837057	1.000849
444.212365	1.001449
444.587612	1.000950
444.962800	1.001353
445.337927	1.001221
445.712995	1.001692
446.088002	1.001597
446.462949	1.001592
446.837837	1.001252
447.212664	1.001303
447.587431	1.001523
447.962139	1.001394
448.336786	1.001229
448.711374	1.000869
449.085901	1.000460
449.460369	1.001900
449.834776	1.001115
450.209124	1.001334
450.583412	1.001076
450.957640	1.001112
451.331808	1.000800
451.705917	1.001045
452.079965	1.000656
452.453954	1.001560
452.827883	1.001270
453.201752	1.001074
453.575562	1.001802
453.949311	1.001693
454.323001	1.000583
454.696632	1.001681
455.070202	1.000917
455.443713	1.000910
455.817164	1.001223
456.190556	1.001226
456.563888	1.001422
456.937160	1.001060
457.310373	1.000531
457.683526	1.001663
458.056619	1.000577
458.429653	1.001154
458.802628	1.000551
459.175542	1.000995
459.548398	1.001684
459.921194	1.001216
460.293930	1.000594
460.666607	1.000496
461.039224	1.000412
461.411782	1.001074
461.784280	1.000603
462.156719	1.001342
462.529099	1.001561
462.901419	1.001286
463.273680	1.000971
463.645882	1.001123
464.018024	1.001345
464.390106	1.001576
464.762130	1.002183
465.134094	1.001639
465.505999	1.001267
465.877845	1.000738
466.249631	1.001440
466.621358	1.001178
466.993026	1.001240
467.364634	1.001511
467.736184	1.001704
468.107674	1.001466
468.479105	1.000982
468.850477	1.001787
469.221790	1.001348
469.593043	1.001138
469.964238	1.002140
470.335373	1.001452
470.706449	1.001187
471.077467	1.001695
471.448425	1.001536
471.819324	1.001921
472.190164	1.000523
472.560945	1.001486
472.931667	1.000981
473.302330	1.001335
473.672934	1.001596
474.043479	1.001090
474.413965	1.000716
474.784393	1.001428
475.154761	1.000913
475.525070	1.000923
475.895321	1.001734
476.265513	1.001560
476.635645	1.001076
477.005719	1.001041
477.375734	1.000944
477.745691	1.001467
478.115588	1.001477
478.485427	1.001257
478.855207	1.001003
479.224928	1.001602
479.594591	1.001462
479.964194	1.001259
480.333739	1.001757
480.703226	1.000983
481.072653	1.001606
481.442022	1.002048
481.811333	1.000955
482.180584	1.001638
482.549777	1.000868
482.918912	1.001082
483.287988	1.000976
483.657005	1.000905
484.025964	1.001932
484.394864	1.001781
484.763706	1.001956
485.132489	1.001577
485.501213	1.001927
485.869879	1.001177
486.238487	1.001885
486.607036	1.001943
486.975527	1.000405
487.343959	1.001904
487.712333	1.001238
488.080648	1.000995
488.448905	1.000951
488.817104	1.001642
489.185244	1.001765
489.553326	1.001414
489.921350	1.001434
490.289315	1.001663
490.657222	1.001458
491.025070	1.001751
491.392861	1.002228
491.760593	1.001919
492.128267	1.000942
492.495883	1.001087
492.863440	1.001325
493.230939	1.001329
493.598380	1.000792
493.965763	1.001937
494.333088	1.001555
494.700354	1.001562
495.067563	1.001565
495.434713	1.000799
495.801805	1.001844
496.168839	1.001407
496.535815	1.001189
496.902733	1.001707
497.269593	1.001541
497.636395	1.002005
498.003139	1.001068
498.369825	1.001926
498.736453	1.001485
499.103023	1.000574
499.469535	1.001038
499.835989	1.001231
500.202385	1.001565
500.568723	1.001156
500.935003	1.001289
501.301226	1.001616
501.667390	1.001473
502.033497	1.001105
502.399546	1.002689
502.765537	1.000878
503.131470	1.001135
503.497345	1.001457
503.863163	1.002386
504.228923	1.001297
504.594625	1.001854
504.960269	1.001677
505.325856	1.002048
505.691385	1.001785
506.056856	1.001614
506.422270	1.001149
506.787625	1.001397
507.152924	1.001473
507.518164	1.001135
507.883347	1.001766
508.248472	1.001247
508.613540	1.001720
508.978550	1.001664
509.343503	1.001307
509.708398	1.001761
510.073236	1.001539
510.438016	1.001296
510.802738	1.001431
511.167403	1.001818
511.532010	1.001218
511.896561	1.001227
512.261053	1.002337
512.625488	1.001099
512.989866	1.001631
513.354186	1.001450
513.718449	1.000932
514.082655	1.000994
514.446803	1.001786
514.810894	1.001695
515.174927	1.001438
515.538904	1.001198
515.902822	1.001655
516.266684	1.001968
516.630488	1.001950
516.994235	1.001049
517.357925	1.001371
517.721558	1.001842
518.085133	1.000609
518.448651	1.002302
518.812112	1.001206
519.175516	1.000619
519.538863	1.002109
519.902152	1.001133
520.265385	1.000909
520.628560	1.001319
520.991678	1.001112
521.354739	1.001888
521.717743	1.001996
522.080690	1.001574
522.443580	1.000990
522.806413	1.001629
523.169189	1.000838
523.531908	1.000760
523.894569	1.001842
524.257174	1.002238
524.619722	1.001807
524.982213	1.002019
525.344647	1.001804
525.707025	1.001394
526.069345	1.001106
526.431608	1.001150
526.793815	1.001999
527.155964	1.001272
527.518057	1.001388
527.880093	1.002015
528.242072	1.001117
528.603995	1.001459
528.965860	1.001764
529.327669	1.001211
529.689421	1.001121
530.051117	1.001170
530.412755	1.001104
530.774337	1.002169
531.135862	1.001331
531.497331	1.000927
531.858743	1.001367
532.220098	1.001494
532.581396	1.001582
532.942638	1.001491
533.303824	1.001614
533.664953	1.001811
534.026025	1.001374
534.387040	1.001858
534.747999	1.001595
535.108902	1.001314
535.469748	1.000890
535.830537	1.001262
536.191270	1.001420
536.551947	1.001045
536.912567	1.001268
537.273131	1.001667
537.633638	1.000993
537.994089	1.001360
538.354483	1.001166
538.714821	1.002096
539.075103	1.001182
539.435328	1.002225
539.795497	1.001684
540.155609	1.001169
540.515665	1.000970
540.875665	1.001299
541.235609	1.001949
541.595496	1.000484
541.955328	1.001332
542.315102	1.001430
542.674821	1.001511
543.034483	1.000764
543.394090	1.000869
543.753640	1.001866
544.113134	1.002084
544.472571	1.001173
544.831953	1.001851
545.191278	1.001464
545.550548	1.001870
545.909761	1.000221
546.268918	1.001509
546.628019	1.001148
546.987064	1.001033
547.346053	1.001521
547.704986	1.001545
548.063863	1.000888
548.422684	1.001669
548.781449	1.001300
549.140158	1.000971
549.498811	1.002016
549.857408	1.001408
550.215949	1.001201
550.574434	1.001299
550.932864	1.000418
551.291237	1.002049
551.649555	1.001137
552.007817	1.001007
552.366022	1.001260
552.724173	1.001589
553.082267	1.001230
553.440305	1.000918
553.798288	1.001159
554.156215	1.001835
554.514086	1.001250
554.871902	1.000593
555.229661	1.001326
555.587365	1.000772
555.945014	1.001735
556.302606	1.000501
556.660143	1.001197
557.017625	1.000858
557.375050	1.000827
557.732421	1.000913
558.089735	1.001288
558.446994	1.001666
558.804197	1.001777
559.161345	1.001636
559.518437	1.001837
559.875474	1.000462
560.232455	1.001177
560.589381	1.001805
560.946251	1.000233
561.303065	1.001476
561.659825	1.001246
562.016528	1.000924
562.373177	1.001008
562.729770	1.001141
563.086307	1.001521
563.442789	1.001350
563.799216	1.001397
564.155587	1.000600
564.511904	1.000725
564.868164	1.000771
565.224370	1.001355
565.580520	1.001345
565.936615	1.000653
566.292654	1.000899
566.648638	1.001178
567.004567	1.000809
567.360441	1.001192
567.716260	1.001534
568.072023	1.002078
568.427732	1.001415
568.783385	1.000302
569.138982	1.000795
569.494525	1.000116
569.850013	1.001425
570.205445	1.000993
570.560823	1.000674
570.916145	1.000678
571.271412	1.000917
571.626625	1.000955
571.981782	1.000251
572.336884	1.001423
572.691931	1.001099
573.046923	1.000145
573.401860	1.001080
573.756743	1.001249
574.111570	1.001612
574.466342	1.001307
574.821059	1.001803
575.175722	1.000966
575.530330	1.001260
575.884882	1.000846
576.239380	1.001600
576.593823	1.001941
576.948211	1.000420
577.302544	1.001189
577.656823	1.001226
578.011047	1.001218
578.365216	1.001033
578.719330	1.000233
579.073389	1.001924
579.427394	1.000651
579.781344	1.001297
580.135239	1.001456
580.489080	1.001196
580.842866	1.001409
581.196597	1.001245
581.550273	1.000710
581.903895	1.001465
582.257463	1.000472
582.610975	1.001312
582.964434	1.000952
583.317837	1.002415
583.671186	1.000952
584.024481	1.001319
584.377721	1.000923
584.730906	1.001234
585.084037	1.001684
585.437113	1.000970
585.790135	1.000530
586.143103	1.000522
586.496016	1.001809
586.848874	1.000916
587.201679	1.001366
587.554428	1.000802
587.907124	1.001232
588.259765	1.001286
588.612352	1.001620
588.964884	1.001218
589.317362	1.001096
589.669786	1.000689
590.022155	1.001514
590.374470	1.000284
590.726731	1.001470
591.078937	1.000459
591.431090	1.000802
591.783188	1.000582
592.135232	1.000946
592.487222	1.001016
592.839157	1.001528
593.191038	1.001395
593.542866	1.000989
593.894639	1.001149
594.246358	1.000814
594.598022	1.000439
594.949633	1.000705
595.301190	1.000367
595.652692	1.000447
596.004141	1.001779
596.355535	1.001006
596.706876	1.000683
597.058162	1.000983
597.409395	1.000864
597.760573	1.000936
598.111698	1.000714
598.462768	1.001260
598.813785	1.000916
599.164748	1.000818
599.515657	1.000358
599.866511	1.000356
600.217312	1.000629
600.568060	1.001090
600.918753	1.001014
601.269392	1.001720
601.619978	1.001256
601.970510	1.001371
602.320988	1.000913
602.671412	1.000697
603.021783	1.000654
603.372100	1.001300
603.722363	1.000776
604.072572	1.000848
604.422728	1.000574
604.772830	1.000091
605.122878	1.001257
605.472872	1.000908
605.822813	1.000685
606.172701	1.000669
606.522534	1.001244
606.872314	1.001578
607.222041	1.000365
607.571714	1.001066
607.921333	1.000315
608.270899	1.000815
608.620411	1.000938
608.969870	1.000609
609.319276	1.000212
609.668627	1.001560
610.017926	1.000039
610.367171	1.001288
610.716362	1.000463
611.065500	1.000027
611.414585	1.000947
611.763616	1.001051
612.112594	1.000541
612.461518	0.999934
612.810389	1.000702
613.159207	1.000936
613.507971	1.000082
613.856682	1.001441
614.205340	1.001368
614.553945	1.000457
614.902496	1.000242
615.250994	1.000847
615.599439	1.001079
615.947830	1.000729
616.296169	1.000966
616.644454	1.000799
616.992686	1.000419
617.340864	1.000698
617.688990	1.000932
618.037063	1.001540
618.385082	1.000524
618.733048	1.000428
619.080961	1.000575
619.428821	1.001191
619.776628	1.000196
620.124382	1.000945
620.472083	0.999605
620.819731	1.001161
621.167326	0.999648
621.514868	1.000966
621.862357	1.000443
622.209793	1.000882
622.557176	0.999289
622.904506	1.000352
623.251783	1.000229
623.599007	1.000853
623.946179	1.000159
624.293297	1.000794
624.640363	1.000577
624.987376	0.999511
625.334336	1.001570
625.681243	1.000715
626.028097	1.000354
626.374899	1.001397
626.721647	1.000306
627.068343	1.000503
627.414987	1.001106
627.761577	0.999991
628.108115	1.000389
628.454600	1.000916
628.801032	1.000094
629.147412	1.001027
629.493739	1.000053
629.840014	0.999764
630.186236	1.000522
630.532405	1.000126
630.878521	1.000070
631.224585	1.000810
631.570597	1.000432
631.916556	1.000581
632.262462	1.000535
632.608316	1.000207
632.954117	1.000240
633.299866	1.000421
633.645562	1.000687
633.991206	1.001333
634.336797	1.001222
634.682336	1.000444
635.027823	1.000096
635.373257	1.000350
635.718639	1.001138
636.063968	1.000386
636.409245	1.000243
636.754470	1.000087
637.099642	1.001664
637.444762	1.000954
637.789829	1.000629
638.134845	0.999874
638.479808	1.000374
638.824719	1.000247
639.169577	1.000883
639.514383	1.000809
639.859137	1.000315
640.203839	1.000662
640.548489	1.000382
640.893086	1.001126
641.237632	1.001179
641.582125	0.999509
641.926566	0.999313
642.270955	1.000332
642.615292	1.000805
642.959576	1.000723
643.303809	1.000132
643.647990	1.000221
643.992118	0.999887
644.336195	1.001124
644.680219	1.000919
645.024192	1.001074
645.368112	0.999764
645.711981	1.000870
646.055797	1.000982
646.399562	0.999875
646.743274	0.999492
647.086935	1.000648
647.430544	1.000291
647.774101	1.000294
648.117606	1.000709
648.461059	0.999679
648.804460	1.000078
649.147810	0.999718
649.491108	1.000139
649.834354	0.999753
650.177548	1.000788
650.520690	1.000879
650.863781	1.000425
651.206820	1.000542
651.549807	1.000451
651.892742	1.000674
652.235626	1.000418
652.578458	1.000594
652.921238	0.999994
653.263967	1.001055
653.606644	1.001407
653.949269	1.000313
654.291843	1.000505
654.634365	1.000442
654.976836	1.000046
655.319255	1.000146
655.661622	0.999823
656.003938	1.000283
656.346203	1.000362
656.688416	1.000482
657.030577	1.000475
657.372687	1.000061
657.714746	0.999881
658.056753	1.000749
658.398708	1.000633
658.740612	1.001245
659.082465	1.001004
659.424266	1.000726
659.766016	0.998965
660.107715	0.999712
660.449362	0.999667
660.790958	1.000053
661.132503	0.998920
661.473996	0.999682
661.815438	0.999510
662.156829	0.999361
662.498168	1.001003
662.839456	0.999268
663.180693	1.000299
663.521879	1.000287
663.863013	0.999751
664.204097	1.000260
664.545129	0.999787
664.886110	0.999707
665.227040	0.999853
665.567918	0.999548
665.908746	1.000190
666.249522	0.999789
666.590248	1.000101
666.930922	1.000359
667.271545	0.999740
667.612118	0.999854
667.952639	0.999777
668.293109	1.000574
668.633528	1.000341
668.973896	1.000479
669.314213	0.998933
669.654480	0.999813
669.994695	0.999958
670.334859	0.999733
670.674973	0.998909
671.015035	1.000181
671.355047	0.999680
671.695008	1.000912
672.034918	0.999955
672.374777	1.000003
672.714585	0.999593
673.054342	0.999464
673.394049	0.999242
673.733705	0.999136
674.073310	0.999798
674.412864	0.999610
674.752368	0.999037
675.091820	0.999870
675.431223	0.999332
675.770574	0.999143
676.109875	0.999711
676.449125	0.999253
676.788324	0.998641
677.127473	1.000344
677.466571	0.999459
677.805619	0.998759
678.144616	0.999972
678.483562	0.997807
678.822458	0.998869
679.161303	1.000123
679.500098	0.999445
679.838842	1.000568
680.177535	0.999301
680.516179	0.999622
680.854771	0.999488
681.193314	0.999488
681.531805	0.998493
681.870247	0.998182
682.208638	0.998554
682.546978	0.998605
682.885268	0.998723
683.223508	0.998522
683.561697	0.998230
683.899836	0.999563
684.237925	0.999339
684.575963	0.998721
684.913951	0.997484
685.251889	0.999145
685.589776	0.997346
685.927614	0.998468
686.265401	0.997506
686.603137	0.997586
686.940824	0.997524
687.278460	0.997561
687.616046	0.997537
687.953582	0.996961
688.291068	0.997557
688.628504	0.997536
