Dividing Wavelength (nm)	Counts (n)	Blue Motor Position (mm): 0.000000	Red Motor Position (mm): 45.900000	
326.493990	1.001579
326.888308	1.001579
327.282561	1.001579
327.676750	0.998919
328.070874	0.999269
328.464933	1.000349
328.858929	0.999042
329.252859	0.998923
329.646726	0.999104
330.040528	1.000330
330.434265	0.999350
330.827938	0.999029
331.221547	1.000232
331.615091	1.000643
332.008571	1.000459
332.401986	0.999961
332.795338	0.999679
333.188625	0.997792
333.581847	1.000527
333.975006	1.000242
334.368100	0.999052
334.761129	1.000103
335.154095	1.001116
335.546996	0.999554
335.939833	0.999206
336.332606	0.999385
336.725315	0.999737
337.117960	1.000829
337.510540	0.999605
337.903056	0.999696
338.295508	0.998550
338.687896	0.999044
339.080220	0.999922
339.472480	1.000426
339.864676	0.999133
340.256807	0.998998
340.648875	0.999806
341.040879	0.999389
341.432818	0.999483
341.824694	0.999557
342.216506	1.000436
342.608253	0.999715
342.999937	0.999258
343.391557	0.999017
343.783113	0.999791
344.174605	0.999221
344.566033	1.000396
344.957397	0.998712
345.348697	0.999710
345.739934	0.998786
346.131106	0.999109
346.522215	1.000031
346.913260	0.998378
347.304241	0.999556
347.695159	0.998328
348.086012	0.998740
348.476802	0.998845
348.867528	1.000430
349.258191	0.998846
349.648789	1.000233
350.039324	1.000370
350.429796	1.000145
350.820203	1.000697
351.210548	0.999782
351.600828	0.999412
351.991045	0.999299
352.381198	0.998885
352.771288	0.999110
353.161314	1.001021
353.551276	1.001689
353.941175	0.999298
354.331010	0.998470
354.720782	1.000089
355.110490	0.998687
355.500135	1.000285
355.889717	0.999829
356.279235	0.999420
356.668689	1.000228
357.058080	0.999814
357.447408	1.000077
357.836672	0.999311
358.225873	0.999758
358.615010	1.000112
359.004084	0.999552
359.393095	1.000696
359.782043	1.000035
360.170927	1.000846
360.559748	1.000405
360.948505	0.999461
361.337199	0.999701
361.725830	0.999631
362.114398	0.999974
362.502903	1.000027
362.891344	1.000141
363.279722	0.999244
363.668037	1.000495
364.056289	0.999620
364.444478	1.000387
364.832603	0.999642
365.220665	0.999723
365.608665	0.999377
365.996601	1.000013
366.384474	1.000090
366.772284	0.999926
367.160031	0.998716
367.547715	0.999082
367.935336	0.999274
368.322893	0.999209
368.710388	1.000713
369.097820	1.000215
369.485189	1.000071
369.872495	0.999126
370.259738	0.998130
370.646918	0.999708
371.034035	1.001126
371.421090	0.999758
371.808081	0.998681
372.195010	1.000242
372.581875	1.000824
372.968678	1.000066
373.355418	1.000315
373.742096	0.999282
374.128710	1.000701
374.515262	0.998726
374.901751	0.999530
375.288177	0.999602
375.674540	0.999970
376.060841	1.000029
376.447079	1.000197
376.833254	0.999429
377.219367	0.999950
377.605417	1.000853
377.991404	1.000153
378.377329	0.999222
378.763191	0.999959
379.148991	1.000985
379.534727	1.001049
379.920402	0.999880
380.306013	1.000376
380.691563	1.001325
381.077049	1.000217
381.462474	1.000434
381.847835	1.000022
382.233134	0.999891
382.618371	1.000002
383.003545	0.999306
383.388657	0.998558
383.773706	1.000854
384.158693	1.000650
384.543618	1.000330
384.928480	1.001344
385.313280	0.999972
385.698017	1.000314
386.082692	1.000531
386.467305	1.000038
386.851856	0.999373
387.236344	1.000051
387.620770	0.999009
388.005133	1.000203
388.389435	1.001642
388.773674	0.999746
389.157851	1.001124
389.541965	1.000665
389.926018	1.000172
390.310008	1.000928
390.693936	0.999584
391.077802	0.999965
391.461606	0.999916
391.845348	1.001115
392.229027	1.001180
392.612645	1.000441
392.996200	1.001689
393.379694	0.999784
393.763125	1.001851
394.146494	1.000600
394.529801	1.000366
394.913047	1.000582
395.296230	1.001419
395.679351	1.000863
396.062410	0.999556
396.445408	1.000596
396.828343	1.001119
397.211217	1.000087
397.594028	1.000928
397.976778	1.000406
398.359466	1.000795
398.742092	0.999991
399.124656	1.000187
399.507158	1.000107
399.889598	1.000402
400.271977	1.000374
400.654294	1.001678
401.036549	1.000757
401.418742	1.001266
401.800874	1.000044
402.182944	1.000871
402.564952	1.000147
402.946898	1.002020
403.328783	1.001173
403.710606	1.000895
404.092367	1.000574
404.474067	1.000769
404.855705	1.000582
405.237282	1.001234
405.618797	1.000033
406.000250	1.000109
406.381642	1.001426
406.762972	1.000522
407.144240	1.000505
407.525447	1.000576
407.906593	1.000979
408.287677	1.000393
408.668700	1.000924
409.049661	0.999908
409.430560	1.001100
409.811399	1.000304
410.192176	0.999809
410.572891	1.000493
410.953545	1.000321
411.334138	1.000088
411.714669	1.000369
412.095139	1.000531
412.475547	1.001583
412.855894	1.000473
413.236180	1.001859
413.616405	1.001467
413.996568	1.001323
414.376670	1.000082
414.756711	0.999437
415.136691	1.000868
415.516609	1.000469
415.896466	1.000391
416.276262	0.999453
416.655997	1.001249
417.035670	1.000219
417.415283	1.001389
417.794834	1.001141
418.174324	1.000959
418.553753	1.000877
418.933121	1.000743
419.312428	1.000577
419.691674	1.000981
420.070859	1.000659
420.449983	1.001015
420.829045	0.999556
421.208047	1.001598
421.586988	1.001615
421.965867	1.000017
422.344686	1.001190
422.723444	1.000312
423.102141	1.000295
423.480777	1.000988
423.859352	1.000985
424.237866	1.000292
424.616319	1.001157
424.994712	1.001629
425.373044	1.001335
425.751314	1.000847
426.129524	1.000860
426.507673	1.000917
426.885762	1.000966
427.263789	1.000948
427.641756	1.001134
428.019662	1.001666
428.397508	1.000517
428.775292	0.999897
429.153016	1.000735
429.530679	1.000643
429.908282	1.001414
430.285824	0.999980
430.663305	1.000120
431.040726	0.999806
431.418086	1.001951
431.795385	1.001561
432.172624	1.000296
432.549802	1.001757
432.926920	1.001277
433.303977	1.000183
433.680974	1.000758
434.057910	1.000433
434.434786	1.001541
434.811601	1.000519
435.188355	1.000840
435.565050	0.999879
435.941683	1.000551
436.318257	1.001686
436.694770	1.000312
437.071222	1.000928
437.447614	1.000907
437.823946	0.999901
438.200218	1.001152
438.576429	1.000990
438.952580	1.001062
439.328670	1.000826
439.704700	1.001159
440.080670	1.001169
440.456580	1.001085
440.832429	1.000343
441.208218	1.000902
441.583947	1.000198
441.959616	1.000743
442.335224	1.000293
442.710773	1.001392
443.086261	1.000365
443.461689	1.000644
443.837057	1.000604
444.212365	1.001763
444.587612	1.000632
444.962800	1.000567
445.337927	1.000985
445.712995	1.000957
446.088002	1.001303
446.462949	1.001103
446.837837	1.001161
447.212664	1.000800
447.587431	1.000892
447.962139	1.001072
448.336786	0.999713
448.711374	1.001158
449.085901	1.000206
449.460369	1.001392
449.834776	1.000717
450.209124	1.000735
450.583412	1.001026
450.957640	1.000866
451.331808	1.000454
451.705917	1.000953
452.079965	1.000069
452.453954	1.002059
452.827883	1.000934
453.201752	1.000932
453.575562	1.001457
453.949311	1.000930
454.323001	1.000906
454.696632	1.000924
455.070202	1.000640
455.443713	0.999738
455.817164	1.000633
456.190556	1.000863
456.563888	1.000823
456.937160	1.000700
457.310373	1.000868
457.683526	1.000805
458.056619	1.000130
458.429653	1.001265
458.802628	1.000455
459.175542	0.999579
459.548398	1.000748
459.921194	1.000580
460.293930	1.001128
460.666607	1.000132
461.039224	0.999419
461.411782	1.000896
461.784280	1.000169
462.156719	1.000954
462.529099	1.001136
462.901419	1.000895
463.273680	1.000518
463.645882	1.000482
464.018024	1.000649
464.390106	1.001087
464.762130	1.001385
465.134094	1.000557
465.505999	1.000506
465.877845	1.000379
466.249631	1.001151
466.621358	1.001039
466.993026	1.000708
467.364634	1.001317
467.736184	1.001190
468.107674	1.000556
468.479105	1.000609
468.850477	1.001064
469.221790	1.001041
469.593043	1.001746
469.964238	1.001856
470.335373	1.000981
470.706449	1.001088
471.077467	1.001153
471.448425	1.000397
471.819324	1.001099
472.190164	1.000722
472.560945	1.001280
472.931667	1.000711
473.302330	1.000370
473.672934	1.001925
474.043479	1.001385
474.413965	1.000879
474.784393	1.001124
475.154761	1.000376
475.525070	1.000423
475.895321	1.000809
476.265513	1.001048
476.635645	1.000851
477.005719	1.001532
477.375734	1.000668
477.745691	1.001174
478.115588	1.001049
478.485427	1.000887
478.855207	1.000720
479.224928	1.000837
479.594591	1.001003
479.964194	1.001320
480.333739	1.001036
480.703226	1.001425
481.072653	1.001504
481.442022	1.001681
481.811333	1.000547
482.180584	1.001287
482.549777	1.000924
482.918912	1.000835
483.287988	1.001025
483.657005	1.001019
484.025964	1.001555
484.394864	1.001382
484.763706	1.001248
485.132489	1.000664
485.501213	1.001088
485.869879	1.001285
486.238487	1.001391
486.607036	1.001547
486.975527	1.000663
487.343959	1.001168
487.712333	1.000443
488.080648	1.000957
488.448905	1.001076
488.817104	1.001348
489.185244	1.001661
489.553326	1.001539
489.921350	1.001015
490.289315	1.001411
490.657222	1.001187
491.025070	1.001103
491.392861	1.001746
491.760593	1.001850
492.128267	1.001046
492.495883	1.000981
492.863440	1.001458
493.230939	1.001112
493.598380	1.001043
493.965763	1.000632
494.333088	1.001115
494.700354	1.000700
495.067563	1.000951
495.434713	1.000921
495.801805	1.001811
496.168839	1.001112
496.535815	1.000729
496.902733	1.000713
497.269593	1.000933
497.636395	1.001738
498.003139	1.000846
498.369825	1.001467
498.736453	1.000790
499.103023	1.000495
499.469535	1.000282
499.835989	1.001177
500.202385	1.001257
500.568723	1.000880
500.935003	1.000843
501.301226	1.001230
501.667390	1.000866
502.033497	1.001111
502.399546	1.001487
502.765537	1.000384
503.131470	1.000518
503.497345	1.000883
503.863163	1.002074
504.228923	1.001310
504.594625	1.002059
504.960269	1.001381
505.325856	1.001361
505.691385	1.000988
506.056856	1.000494
506.422270	1.001364
506.787625	1.001330
507.152924	1.001418
507.518164	1.000413
507.883347	1.001028
508.248472	1.000719
508.613540	1.001263
508.978550	1.001316
509.343503	1.000671
509.708398	1.000892
510.073236	1.001364
510.438016	1.001473
510.802738	1.000864
511.167403	1.000288
511.532010	1.000817
511.896561	1.001277
512.261053	1.001374
512.625488	1.000742
512.989866	1.000805
513.354186	1.001261
513.718449	1.001373
514.082655	1.001144
514.446803	1.001757
514.810894	1.001350
515.174927	1.001179
515.538904	1.001129
515.902822	1.000824
516.266684	1.001115
516.630488	1.001154
516.994235	1.000604
517.357925	1.000600
517.721558	1.001287
518.085133	1.000969
518.448651	1.001942
518.812112	1.001223
519.175516	1.001113
519.538863	1.001350
519.902152	1.000777
520.265385	1.000388
520.628560	1.000734
520.991678	1.001818
521.354739	1.001035
521.717743	1.001270
522.080690	1.001185
522.443580	1.000220
522.806413	1.001065
523.169189	1.000774
523.531908	1.000983
523.894569	1.001398
524.257174	1.001443
524.619722	1.001252
524.982213	1.001321
525.344647	1.001637
525.707025	1.001069
526.069345	1.000060
526.431608	1.001448
526.793815	1.001733
527.155964	1.001192
527.518057	1.001502
527.880093	1.001263
528.242072	1.000517
528.603995	1.000757
528.965860	1.001766
529.327669	1.000975
529.689421	1.000399
530.051117	1.001844
530.412755	1.001355
530.774337	1.001331
531.135862	1.000990
531.497331	1.001046
531.858743	1.001557
532.220098	1.001705
532.581396	1.001427
532.942638	1.001420
533.303824	1.001503
533.664953	1.000837
534.026025	1.001442
534.387040	1.001138
534.747999	1.001170
535.108902	1.001588
535.469748	1.000901
535.830537	1.000771
536.191270	1.001170
536.551947	1.000739
536.912567	1.001408
537.273131	1.001599
537.633638	1.000489
537.994089	1.000947
538.354483	1.001541
538.714821	1.001124
539.075103	1.001049
539.435328	1.000772
539.795497	1.000859
540.155609	1.000732
540.515665	1.001047
540.875665	1.001185
541.235609	1.000538
541.595496	1.001029
541.955328	0.999918
542.315102	1.001082
542.674821	1.000937
543.034483	1.000066
543.394090	1.000637
543.753640	1.001299
544.113134	1.001201
544.472571	1.000949
544.831953	1.001078
545.191278	1.001030
545.550548	1.001015
545.909761	1.000277
546.268918	1.000699
546.628019	1.001146
546.987064	1.000699
547.346053	1.000470
547.704986	1.000891
548.063863	1.000894
548.422684	1.001349
548.781449	1.000980
549.140158	1.000162
549.498811	1.001215
549.857408	1.000926
550.215949	1.000860
550.574434	1.001010
550.932864	1.001009
551.291237	1.000999
551.649555	1.000613
552.007817	1.000478
552.366022	1.000702
552.724173	1.000373
553.082267	1.001423
553.440305	1.000314
553.798288	1.000668
554.156215	1.000328
554.514086	1.000699
554.871902	1.000297
555.229661	1.000874
555.587365	1.000558
555.945014	1.001645
556.302606	1.000114
556.660143	1.000396
557.017625	1.000504
557.375050	1.000057
557.732421	1.000084
558.089735	1.000743
558.446994	1.001856
558.804197	1.001021
559.161345	1.001054
559.518437	1.001355
559.875474	1.000262
560.232455	1.000215
560.589381	1.001283
560.946251	1.000171
561.303065	1.000530
561.659825	1.000535
562.016528	1.000440
562.373177	1.000913
562.729770	0.999751
563.086307	1.001382
563.442789	1.000590
563.799216	1.000886
564.155587	1.000289
564.511904	1.000262
564.868164	0.999980
565.224370	1.000266
565.580520	1.000376
565.936615	0.999886
566.292654	0.999947
566.648638	1.000611
567.004567	0.999977
567.360441	1.000644
567.716260	1.001042
568.072023	1.000952
568.427732	1.000443
568.783385	1.000646
569.138982	1.000410
569.494525	0.999809
569.850013	1.000300
570.205445	1.000464
570.560823	1.000874
570.916145	0.999970
571.271412	1.000854
571.626625	1.000228
571.981782	0.999973
572.336884	0.999917
572.691931	1.000095
573.046923	0.999675
573.401860	1.000155
573.756743	1.000881
574.111570	1.000637
574.466342	1.000765
574.821059	1.001348
575.175722	1.000349
575.530330	1.000461
575.884882	1.000395
576.239380	1.000991
576.593823	1.000715
576.948211	1.000792
577.302544	1.000873
577.656823	1.000379
578.011047	1.000649
578.365216	1.000353
578.719330	1.000425
579.073389	1.000687
579.427394	1.000434
579.781344	1.000602
580.135239	1.000040
580.489080	1.000208
580.842866	1.000740
581.196597	1.000572
581.550273	0.999984
581.903895	1.000822
582.257463	1.000040
582.610975	1.000122
582.964434	1.000196
583.317837	1.000861
583.671186	1.000164
584.024481	1.000787
584.377721	0.999938
584.730906	1.000753
585.084037	1.000534
585.437113	1.000315
585.790135	1.000325
586.143103	0.999467
586.496016	1.001072
586.848874	1.000226
587.201679	1.000343
587.554428	1.001075
587.907124	1.000526
588.259765	1.000370
588.612352	1.001424
588.964884	1.000698
589.317362	1.000581
589.669786	1.001170
590.022155	1.000568
590.374470	1.000322
590.726731	1.000498
591.078937	0.999652
591.431090	1.000030
591.783188	1.000402
592.135232	1.000953
592.487222	1.000940
592.839157	1.000023
593.191038	1.000909
593.542866	1.000411
593.894639	1.000655
594.246358	0.999590
594.598022	1.000817
594.949633	1.000448
595.301190	1.000136
595.652692	1.001318
596.004141	1.000734
596.355535	1.000884
596.706876	0.999729
597.058162	1.000440
597.409395	1.000401
597.760573	1.000965
598.111698	0.999756
598.462768	1.000004
598.813785	0.999888
599.164748	1.000453
599.515657	1.000123
599.866511	1.000073
600.217312	0.999993
600.568060	1.000189
600.918753	1.000699
601.269392	1.000363
601.619978	0.999956
601.970510	1.000489
602.320988	1.000647
602.671412	0.999764
603.021783	1.000102
603.372100	1.000718
603.722363	1.001107
604.072572	0.999840
604.422728	1.001029
604.772830	1.000195
605.122878	0.999923
605.472872	0.999830
605.822813	0.999693
606.172701	1.000762
606.522534	1.000676
606.872314	1.000864
607.222041	1.000355
607.571714	1.000741
607.921333	0.999888
608.270899	1.000353
608.620411	1.000171
608.969870	1.000234
609.319276	1.000484
609.668627	1.001018
610.017926	0.999260
610.367171	1.000113
610.716362	0.999643
611.065500	1.000191
611.414585	0.999593
611.763616	0.999911
612.112594	0.999572
612.461518	0.999937
612.810389	0.999533
613.159207	0.999903
613.507971	0.999763
613.856682	1.000620
614.205340	1.000687
614.553945	1.000050
614.902496	0.999937
615.250994	0.999698
615.599439	1.000282
615.947830	1.000017
616.296169	1.000246
616.644454	0.999694
616.992686	1.000075
617.340864	0.999565
617.688990	1.000466
618.037063	0.999998
618.385082	0.999774
618.733048	0.999887
619.080961	1.000650
619.428821	1.000485
619.776628	1.000059
620.124382	0.999639
620.472083	0.999440
620.819731	1.000625
621.167326	0.999601
621.514868	1.000351
621.862357	1.000008
622.209793	1.001295
622.557176	0.998797
622.904506	0.999965
623.251783	0.998828
623.599007	1.000115
623.946179	1.000400
624.293297	1.000239
624.640363	1.000009
624.987376	0.999014
625.334336	1.000409
625.681243	0.999933
626.028097	1.000362
626.374899	1.000457
626.721647	1.000261
627.068343	1.000608
627.414987	1.000202
627.761577	1.000128
628.108115	1.000331
628.454600	1.000098
628.801032	0.999611
629.147412	0.999903
629.493739	1.000088
629.840014	0.999562
630.186236	1.000029
630.532405	1.000115
630.878521	0.999801
631.224585	0.999288
631.570597	0.999833
631.916556	1.000105
632.262462	1.000361
632.608316	1.000504
632.954117	0.999407
633.299866	1.000151
633.645562	0.999975
633.991206	1.000528
634.336797	1.000389
634.682336	1.000236
635.027823	1.000233
635.373257	1.000234
635.718639	1.000550
636.063968	0.999555
636.409245	0.999312
636.754470	1.000182
637.099642	1.000203
637.444762	1.000042
637.789829	0.999993
638.134845	0.999616
638.479808	0.999513
638.824719	0.999893
639.169577	0.999200
639.514383	0.999219
639.859137	0.999494
640.203839	1.000102
640.548489	1.000222
640.893086	1.000203
641.237632	1.000227
641.582125	0.998410
641.926566	0.998802
642.270955	0.999711
642.615292	0.999686
642.959576	0.999569
643.303809	0.999847
643.647990	0.999674
643.992118	1.000099
644.336195	0.999792
644.680219	0.999787
645.024192	0.998978
645.368112	0.999649
645.711981	1.000523
646.055797	0.999766
646.399562	0.999335
646.743274	0.998438
647.086935	0.999339
647.430544	0.999579
647.774101	0.999560
648.117606	1.000124
648.461059	0.999523
648.804460	0.999102
649.147810	0.999058
649.491108	1.000112
649.834354	0.999327
650.177548	1.000243
650.520690	0.999450
650.863781	0.999934
651.206820	1.000114
651.549807	1.000111
651.892742	0.999291
652.235626	0.998910
652.578458	0.999911
652.921238	0.999853
653.263967	1.000201
653.606644	1.000143
653.949269	0.999728
654.291843	0.999102
654.634365	0.998810
654.976836	1.000209
655.319255	0.999859
655.661622	1.000925
656.003938	0.998675
656.346203	0.999113
656.688416	0.999515
657.030577	0.999815
657.372687	0.998756
657.714746	0.998646
658.056753	0.999713
658.398708	0.999637
658.740612	0.999637
659.082465	0.998883
659.424266	0.999682
659.766016	0.998443
660.107715	0.998326
660.449362	0.998708
660.790958	0.999291
661.132503	0.998192
661.473996	0.998464
661.815438	0.999269
662.156829	0.998588
662.498168	0.999131
662.839456	0.998557
663.180693	1.000135
663.521879	0.998985
663.863013	0.999633
664.204097	0.999675
664.545129	0.999165
664.886110	0.999249
665.227040	0.997842
665.567918	0.998501
665.908746	0.998864
666.249522	0.998074
666.590248	0.998360
666.930922	0.998854
667.271545	0.998451
667.612118	0.998518
667.952639	0.998890
668.293109	0.998719
668.633528	0.997877
668.973896	0.999139
669.314213	0.997549
669.654480	0.998308
669.994695	0.998248
670.334859	0.997954
670.674973	0.997337
671.015035	0.998388
671.355047	0.997678
671.695008	0.998379
672.034918	0.997656
672.374777	0.997510
672.714585	0.997524
673.054342	0.997418
673.394049	0.997908
673.733705	0.996362
674.073310	0.996758
674.412864	0.997657
674.752368	0.997590
675.091820	0.998489
675.431223	0.998036
675.770574	0.996664
676.109875	0.997496
676.449125	0.996717
676.788324	0.996661
677.127473	0.998455
677.466571	0.996663
677.805619	0.996894
678.144616	0.997146
678.483562	0.996855
678.822458	0.996378
679.161303	0.998052
679.500098	0.996509
679.838842	0.997718
680.177535	0.997345
680.516179	0.997468
680.854771	0.997228
681.193314	0.997389
681.531805	0.996475
681.870247	0.995931
682.208638	0.995469
682.546978	0.995149
682.885268	0.995278
683.223508	0.995568
683.561697	0.994436
683.899836	0.995356
684.237925	0.995170
684.575963	0.994788
684.913951	0.994655
685.251889	0.994623
685.589776	0.994497
685.927614	0.994251
686.265401	0.993855
686.603137	0.993826
686.940824	0.993408
687.278460	0.992857
687.616046	0.993167
687.953582	0.992531
688.291068	0.991514
688.628504	0.993306
