Dividing Wavelength (nm)	Counts (n)	Blue Motor Position (mm): 0.000000	Red Motor Position (mm): 48.700000	
326.493990	1.000231
326.888308	1.000231
327.282561	1.000231
327.676750	0.999982
328.070874	0.999806
328.464933	0.999309
328.858929	1.000012
329.252859	0.998286
329.646726	0.999645
330.040528	1.000314
330.434265	0.999807
330.827938	1.000044
331.221547	1.001775
331.615091	0.999917
332.008571	1.000021
332.401986	1.000211
332.795338	1.000567
333.188625	0.998647
333.581847	1.001215
333.975006	1.000368
334.368100	1.000333
334.761129	0.999721
335.154095	1.000703
335.546996	1.000069
335.939833	0.999801
336.332606	0.998863
336.725315	1.001506
337.117960	1.000652
337.510540	1.000107
337.903056	0.999650
338.295508	0.998983
338.687896	1.000491
339.080220	1.000179
339.472480	1.001003
339.864676	1.000095
340.256807	1.000116
340.648875	1.001451
341.040879	1.000656
341.432818	1.000019
341.824694	1.000092
342.216506	1.001370
342.608253	1.000274
342.999937	0.999724
343.391557	1.001119
343.783113	1.000320
344.174605	0.999026
344.566033	1.000939
344.957397	0.999184
345.348697	1.000343
345.739934	0.999953
346.131106	0.999797
346.522215	1.000111
346.913260	1.000082
347.304241	0.999345
347.695159	1.000084
348.086012	1.000145
348.476802	1.001350
348.867528	0.999986
349.258191	0.998555
349.648789	0.999696
350.039324	0.999487
350.429796	0.999918
350.820203	1.000514
351.210548	1.000208
351.600828	0.999672
351.991045	0.999965
352.381198	0.999078
352.771288	0.999056
353.161314	0.999948
353.551276	1.000417
353.941175	0.999682
354.331010	0.999767
354.720782	1.000631
355.110490	0.999780
355.500135	1.000250
355.889717	1.000751
356.279235	0.999507
356.668689	1.000275
357.058080	0.999772
357.447408	1.001910
357.836672	1.000074
358.225873	1.000484
358.615010	1.000308
359.004084	1.001000
359.393095	1.000323
359.782043	1.000231
360.170927	1.002634
360.559748	1.000874
360.948505	1.000240
361.337199	1.000012
361.725830	1.000422
362.114398	0.999468
362.502903	0.999911
362.891344	1.001551
363.279722	0.999475
363.668037	1.001580
364.056289	1.000999
364.444478	1.000727
364.832603	1.000632
365.220665	0.999394
365.608665	1.000590
365.996601	0.998815
366.384474	1.000313
366.772284	0.999085
367.160031	0.999969
367.547715	0.999578
367.935336	1.001000
368.322893	1.000481
368.710388	0.999664
369.097820	0.999878
369.485189	1.000580
369.872495	0.999933
370.259738	0.997926
370.646918	1.001675
371.034035	1.001148
371.421090	0.999749
371.808081	1.000284
372.195010	1.000485
372.581875	1.001123
372.968678	1.000155
373.355418	1.001089
373.742096	0.999701
374.128710	1.001364
374.515262	0.999881
374.901751	1.000124
375.288177	1.000424
375.674540	1.000089
376.060841	0.999178
376.447079	0.999535
376.833254	1.000569
377.219367	1.000668
377.605417	1.000658
377.991404	1.000212
378.377329	0.999743
378.763191	1.000198
379.148991	1.001341
379.534727	1.000560
379.920402	1.000473
380.306013	1.000736
380.691563	1.000582
381.077049	1.000764
381.462474	1.000323
381.847835	1.000564
382.233134	1.000169
382.618371	1.000616
383.003545	1.000626
383.388657	1.000527
383.773706	1.001610
384.158693	1.000482
384.543618	1.000785
384.928480	1.000758
385.313280	1.000261
385.698017	1.001139
386.082692	1.000973
386.467305	1.000266
386.851856	0.999958
387.236344	0.999692
387.620770	0.998767
388.005133	1.000624
388.389435	1.001973
388.773674	1.000538
389.157851	1.001125
389.541965	1.001269
389.926018	1.000388
390.310008	1.000620
390.693936	1.000153
391.077802	1.001104
391.461606	1.001194
391.845348	1.000595
392.229027	1.001511
392.612645	1.001714
392.996200	1.002398
393.379694	1.000523
393.763125	1.001560
394.146494	1.000835
394.529801	0.999536
394.913047	1.001433
395.296230	1.001220
395.679351	1.000924
396.062410	1.000366
396.445408	1.000826
396.828343	0.999929
397.211217	1.000554
397.594028	1.002022
397.976778	1.000776
398.359466	1.000505
398.742092	1.000026
399.124656	0.999978
399.507158	1.000842
399.889598	1.002010
400.271977	1.000375
400.654294	1.001605
401.036549	1.001591
401.418742	1.001258
401.800874	0.999885
402.182944	1.000502
402.564952	1.000124
402.946898	1.001037
403.328783	1.001717
403.710606	1.000571
404.092367	1.001065
404.474067	1.000663
404.855705	0.999736
405.237282	1.001006
405.618797	0.999924
406.000250	1.000459
406.381642	1.000642
406.762972	1.000322
407.144240	1.001328
407.525447	1.001177
407.906593	1.000957
408.287677	1.001316
408.668700	1.001230
409.049661	1.000332
409.430560	1.000609
409.811399	1.000606
410.192176	1.000277
410.572891	1.001103
410.953545	1.000953
411.334138	0.999713
411.714669	1.000989
412.095139	0.999776
412.475547	1.001041
412.855894	1.000933
413.236180	1.001189
413.616405	1.000535
413.996568	1.001968
414.376670	1.000921
414.756711	1.000772
415.136691	1.000374
415.516609	1.000785
415.896466	1.000234
416.276262	0.999438
416.655997	1.000130
417.035670	1.000266
417.415283	1.000598
417.794834	1.000813
418.174324	1.000009
418.553753	1.001018
418.933121	1.000978
419.312428	1.000645
419.691674	1.001671
420.070859	1.002048
420.449983	1.000365
420.829045	1.001392
421.208047	1.001397
421.586988	1.001877
421.965867	1.000908
422.344686	1.001552
422.723444	1.001266
423.102141	1.001090
423.480777	1.001869
423.859352	1.001483
424.237866	1.000104
424.616319	1.001474
424.994712	1.001568
425.373044	1.001611
425.751314	1.001043
426.129524	1.000938
426.507673	1.001163
426.885762	1.001196
427.263789	1.000434
427.641756	1.001163
428.019662	1.001362
428.397508	0.999970
428.775292	1.001095
429.153016	1.000081
429.530679	1.001384
429.908282	1.001049
430.285824	1.000961
430.663305	1.000401
431.040726	1.000409
431.418086	1.001611
431.795385	1.001663
432.172624	1.000763
432.549802	1.001320
432.926920	1.001508
433.303977	1.000285
433.680974	1.001293
434.057910	1.000846
434.434786	1.001577
434.811601	1.000746
435.188355	1.000053
435.565050	0.999608
435.941683	1.000496
436.318257	1.002593
436.694770	0.999483
437.071222	1.001492
437.447614	1.000967
437.823946	1.000832
438.200218	1.001384
438.576429	1.000837
438.952580	1.001738
439.328670	1.000101
439.704700	1.001675
440.080670	1.001876
440.456580	1.000519
440.832429	1.000304
441.208218	1.001204
441.583947	1.000837
441.959616	1.001340
442.335224	1.000903
442.710773	1.002236
443.086261	1.000947
443.461689	1.000696
443.837057	1.000801
444.212365	1.000993
444.587612	1.000185
444.962800	1.000802
445.337927	1.000951
445.712995	1.001299
446.088002	1.001482
446.462949	1.001467
446.837837	1.001578
447.212664	1.001272
447.587431	1.001551
447.962139	1.001275
448.336786	1.001182
448.711374	1.001364
449.085901	1.001106
449.460369	1.001893
449.834776	1.001048
450.209124	1.001159
450.583412	1.001283
450.957640	1.001067
451.331808	1.001419
451.705917	1.001097
452.079965	1.000853
452.453954	1.000498
452.827883	1.001558
453.201752	1.000813
453.575562	1.001708
453.949311	1.001472
454.323001	1.001305
454.696632	1.000234
455.070202	1.001123
455.443713	1.000771
455.817164	1.001722
456.190556	1.001354
456.563888	1.000879
456.937160	1.000917
457.310373	1.000845
457.683526	1.001220
458.056619	1.001435
458.429653	1.002027
458.802628	0.999987
459.175542	1.001429
459.548398	1.001225
459.921194	1.001055
460.293930	1.001028
460.666607	1.000741
461.039224	1.000411
461.411782	1.001204
461.784280	1.000125
462.156719	1.001319
462.529099	1.001443
462.901419	1.000956
463.273680	1.001235
463.645882	1.001166
464.018024	1.001582
464.390106	1.001172
464.762130	1.001299
465.134094	1.001092
465.505999	1.000779
465.877845	1.000463
466.249631	1.001010
466.621358	1.001236
466.993026	1.001501
467.364634	1.001288
467.736184	1.001493
468.107674	1.000934
468.479105	1.000751
468.850477	1.001441
469.221790	1.001363
469.593043	1.002030
469.964238	1.001749
470.335373	1.001415
470.706449	1.001344
471.077467	1.001747
471.448425	1.000761
471.819324	1.001305
472.190164	1.000998
472.560945	1.001291
472.931667	1.001284
473.302330	1.000985
473.672934	1.001861
474.043479	1.001390
474.413965	1.000938
474.784393	1.002233
475.154761	1.001110
475.525070	1.000635
475.895321	1.001385
476.265513	1.001029
476.635645	1.000964
477.005719	1.001450
477.375734	1.001079
477.745691	1.001362
478.115588	1.001319
478.485427	1.001954
478.855207	1.000620
479.224928	1.001360
479.594591	1.000520
479.964194	1.001273
480.333739	1.001642
480.703226	1.001132
481.072653	1.001598
481.442022	1.002196
481.811333	1.000698
482.180584	1.001506
482.549777	1.000922
482.918912	1.001346
483.287988	1.001597
483.657005	1.001407
484.025964	1.001536
484.394864	1.001618
484.763706	1.001854
485.132489	1.001370
485.501213	1.001561
485.869879	1.001608
486.238487	1.001676
486.607036	1.001782
486.975527	1.000832
487.343959	1.001028
487.712333	1.000909
488.080648	1.001501
488.448905	1.001426
488.817104	1.001954
489.185244	1.001257
489.553326	1.001647
489.921350	1.000880
490.289315	1.000629
490.657222	1.001459
491.025070	1.001291
491.392861	1.001304
491.760593	1.001477
492.128267	1.001022
492.495883	1.001263
492.863440	1.001320
493.230939	1.001436
493.598380	1.001518
493.965763	1.001410
494.333088	1.001659
494.700354	1.000767
495.067563	1.001331
495.434713	1.001025
495.801805	1.001323
496.168839	1.001374
496.535815	1.000945
496.902733	1.001733
497.269593	1.001188
497.636395	1.001778
498.003139	1.001785
498.369825	1.001796
498.736453	1.001637
499.103023	1.000840
499.469535	1.000933
499.835989	1.001275
500.202385	1.001489
500.568723	1.001243
500.935003	1.001629
501.301226	1.001769
501.667390	1.001480
502.033497	1.001792
502.399546	1.002100
502.765537	1.000709
503.131470	1.000936
503.497345	1.001043
503.863163	1.001872
504.228923	1.001339
504.594625	1.002014
504.960269	1.001611
505.325856	1.001669
505.691385	1.001192
506.056856	1.001234
506.422270	1.001142
506.787625	1.001404
507.152924	1.001227
507.518164	1.001426
507.883347	1.001278
508.248472	1.001116
508.613540	1.001607
508.978550	1.001957
509.343503	1.000971
509.708398	1.001272
510.073236	1.001463
510.438016	1.001573
510.802738	1.001499
511.167403	1.001632
511.532010	1.001291
511.896561	1.000870
512.261053	1.002864
512.625488	1.001120
512.989866	1.002034
513.354186	1.001417
513.718449	1.001581
514.082655	1.001570
514.446803	1.001635
514.810894	1.001554
515.174927	1.001099
515.538904	1.001208
515.902822	1.000943
516.266684	1.001437
516.630488	1.002232
516.994235	1.000801
517.357925	1.001261
517.721558	1.001449
518.085133	1.000678
518.448651	1.001821
518.812112	1.001759
519.175516	1.001376
519.538863	1.001177
519.902152	1.000996
520.265385	1.000960
520.628560	1.001049
520.991678	1.001073
521.354739	1.001590
521.717743	1.001456
522.080690	1.001945
522.443580	1.001632
522.806413	1.001303
523.169189	1.001031
523.531908	1.000593
523.894569	1.001224
524.257174	1.001593
524.619722	1.001230
524.982213	1.001458
525.344647	1.002348
525.707025	1.001378
526.069345	1.000966
526.431608	1.001471
526.793815	1.002279
527.155964	1.000652
527.518057	1.001475
527.880093	1.001500
528.242072	1.001281
528.603995	1.001735
528.965860	1.002510
529.327669	1.001164
529.689421	1.001471
530.051117	1.002039
530.412755	1.001670
530.774337	1.001633
531.135862	1.001455
531.497331	1.001786
531.858743	1.001626
532.220098	1.001790
532.581396	1.002125
532.942638	1.001275
533.303824	1.001590
533.664953	1.001319
534.026025	1.001208
534.387040	1.001689
534.747999	1.002266
535.108902	1.002293
535.469748	1.001373
535.830537	1.000694
536.191270	1.001652
536.551947	1.001469
536.912567	1.001361
537.273131	1.002060
537.633638	1.000411
537.994089	1.002061
538.354483	1.001354
538.714821	1.001219
539.075103	1.001530
539.435328	1.001374
539.795497	1.001676
540.155609	1.001076
540.515665	1.001532
540.875665	1.001947
541.235609	1.001158
541.595496	1.001777
541.955328	1.000473
542.315102	1.001615
542.674821	1.001695
543.034483	1.000655
543.394090	1.000808
543.753640	1.001505
544.113134	1.001202
544.472571	1.001691
544.831953	1.001319
545.191278	1.001012
545.550548	1.002137
545.909761	1.000618
546.268918	1.001528
546.628019	1.001814
546.987064	1.001234
547.346053	1.001784
547.704986	1.001401
548.063863	1.002064
548.422684	1.001713
548.781449	1.002255
549.140158	1.001471
549.498811	1.001924
549.857408	1.001386
550.215949	1.001652
550.574434	1.000676
550.932864	1.001518
551.291237	1.002484
551.649555	1.001239
552.007817	1.001648
552.366022	1.001054
552.724173	1.001679
553.082267	1.001694
553.440305	1.001328
553.798288	1.001519
554.156215	1.000979
554.514086	1.002011
554.871902	1.000985
555.229661	1.001429
555.587365	1.001487
555.945014	1.001940
556.302606	1.001521
556.660143	1.001642
557.017625	1.000913
557.375050	1.001303
557.732421	1.001978
558.089735	1.002385
558.446994	1.002700
558.804197	1.001722
559.161345	1.002729
559.518437	1.002031
559.875474	1.001048
560.232455	1.001555
560.589381	1.002133
560.946251	1.000568
561.303065	1.001226
561.659825	1.001325
562.016528	1.001514
562.373177	1.001436
562.729770	1.001026
563.086307	1.001774
563.442789	1.000926
563.799216	1.001333
564.155587	1.001184
564.511904	1.000802
564.868164	1.000649
565.224370	1.001563
565.580520	1.001494
565.936615	1.001641
566.292654	1.001184
566.648638	1.001617
567.004567	1.001142
567.360441	1.001363
567.716260	1.001912
568.072023	1.001402
568.427732	1.001394
568.783385	1.001337
569.138982	1.001844
569.494525	1.001454
569.850013	1.001578
570.205445	1.001282
570.560823	1.000935
570.916145	1.001414
571.271412	1.001350
571.626625	1.001460
571.981782	1.001197
572.336884	1.002425
572.691931	1.001488
573.046923	1.000793
573.401860	1.001510
573.756743	1.001893
574.111570	1.001725
574.466342	1.002025
574.821059	1.001534
575.175722	1.001031
575.530330	1.001623
575.884882	1.001242
576.239380	1.002673
576.593823	1.001213
576.948211	1.002004
577.302544	1.001403
577.656823	1.001711
578.011047	1.001822
578.365216	1.001384
578.719330	1.001271
579.073389	1.002193
579.427394	1.001004
579.781344	1.001522
580.135239	1.001560
580.489080	1.001768
580.842866	1.001012
581.196597	1.001048
581.550273	1.000522
581.903895	1.001290
582.257463	1.001172
582.610975	1.001289
582.964434	1.001066
583.317837	1.001822
583.671186	1.001482
584.024481	1.001053
584.377721	1.001328
584.730906	1.001358
585.084037	1.001727
585.437113	1.001509
585.790135	1.001395
586.143103	1.001372
586.496016	1.001600
586.848874	1.001519
587.201679	1.001251
587.554428	1.001594
587.907124	1.001408
588.259765	1.001162
588.612352	1.001973
588.964884	1.001988
589.317362	1.001834
589.669786	1.001936
590.022155	1.001251
590.374470	1.001514
590.726731	1.001023
591.078937	1.001098
591.431090	1.001573
591.783188	1.001279
592.135232	1.001084
592.487222	1.001060
592.839157	1.001559
593.191038	1.001268
593.542866	1.000714
593.894639	1.002096
594.246358	1.001322
594.598022	1.001047
594.949633	1.001115
595.301190	1.000950
595.652692	1.001542
596.004141	1.002365
596.355535	1.001134
596.706876	1.001166
597.058162	1.001250
597.409395	1.001841
597.760573	1.001026
598.111698	1.001590
598.462768	1.000984
598.813785	1.001580
599.164748	1.001060
599.515657	1.001231
599.866511	1.000374
600.217312	1.001889
600.568060	1.001290
600.918753	1.002034
601.269392	1.001810
601.619978	1.001557
601.970510	1.001709
602.320988	1.001594
602.671412	1.001176
603.021783	1.001476
603.372100	1.002046
603.722363	1.001678
604.072572	1.001363
604.422728	1.001678
604.772830	1.001156
605.122878	1.000850
605.472872	1.001930
605.822813	1.000922
606.172701	1.001691
606.522534	1.001904
606.872314	1.001978
607.222041	1.001286
607.571714	1.001408
607.921333	1.000732
608.270899	1.001082
608.620411	1.001585
608.969870	1.001762
609.319276	1.001578
609.668627	1.001834
610.017926	1.001004
610.367171	1.001113
610.716362	1.000399
611.065500	1.001035
611.414585	1.001351
611.763616	1.001146
612.112594	1.000661
612.461518	1.000520
612.810389	1.001528
613.159207	1.001639
613.507971	1.001403
613.856682	1.001457
614.205340	1.001070
614.553945	1.000593
614.902496	1.001351
615.250994	1.001254
615.599439	1.001764
615.947830	1.001847
616.296169	1.001315
616.644454	1.000624
616.992686	1.001403
617.340864	1.001812
617.688990	1.001940
618.037063	1.001258
618.385082	1.001641
618.733048	1.001464
619.080961	1.001169
619.428821	1.001584
619.776628	1.001105
620.124382	1.000743
620.472083	1.000448
620.819731	1.002377
621.167326	1.001878
621.514868	1.001193
621.862357	1.001023
622.209793	1.001873
622.557176	1.000125
622.904506	1.001267
623.251783	1.000555
623.599007	1.001207
623.946179	1.001918
624.293297	1.001524
624.640363	1.001090
624.987376	1.000666
625.334336	1.002290
625.681243	1.001321
626.028097	1.002526
626.374899	1.001438
626.721647	1.001326
627.068343	1.001898
627.414987	1.001177
627.761577	1.000938
628.108115	1.001763
628.454600	1.001898
628.801032	1.000813
629.147412	1.001678
629.493739	1.000684
629.840014	1.001022
630.186236	1.001255
630.532405	1.001333
630.878521	1.001782
631.224585	1.001451
631.570597	1.001630
631.916556	1.001248
632.262462	1.001308
632.608316	1.002016
632.954117	1.000553
633.299866	1.001261
633.645562	1.001130
633.991206	1.001460
634.336797	1.001762
634.682336	1.001720
635.027823	1.001211
635.373257	1.002124
635.718639	1.001572
636.063968	1.001043
636.409245	1.001400
636.754470	1.000644
637.099642	1.002110
637.444762	1.001537
637.789829	1.000905
638.134845	1.001244
638.479808	1.001145
638.824719	1.001743
639.169577	1.000411
639.514383	1.001200
639.859137	1.000889
640.203839	1.000857
640.548489	1.000791
640.893086	1.001255
641.237632	1.001456
641.582125	1.000289
641.926566	1.000250
642.270955	1.001032
642.615292	1.001648
642.959576	1.001513
643.303809	1.001823
643.647990	1.001018
643.992118	1.001484
644.336195	1.001258
644.680219	1.000977
645.024192	1.001410
645.368112	1.000929
645.711981	1.001527
646.055797	1.000700
646.399562	1.000636
646.743274	0.999887
647.086935	1.001286
647.430544	1.001133
647.774101	1.000655
648.117606	1.001310
648.461059	1.000674
648.804460	1.000864
649.147810	1.000764
649.491108	1.000873
649.834354	1.000786
650.177548	1.001013
650.520690	1.001376
650.863781	1.001576
651.206820	1.000732
651.549807	1.001224
651.892742	1.001763
652.235626	1.001184
652.578458	1.001483
652.921238	1.000891
653.263967	1.002002
653.606644	1.001916
653.949269	1.001316
654.291843	1.001487
654.634365	1.000794
654.976836	1.001730
655.319255	1.000978
655.661622	1.001614
656.003938	1.001027
656.346203	1.001374
656.688416	1.001052
657.030577	1.001308
657.372687	1.000765
657.714746	1.001131
658.056753	1.001209
658.398708	1.001281
658.740612	1.001150
659.082465	1.001628
659.424266	1.001586
659.766016	1.000481
660.107715	1.000280
660.449362	1.001424
660.790958	1.000871
661.132503	0.999055
661.473996	1.001691
661.815438	1.000360
662.156829	1.000576
662.498168	1.000786
662.839456	1.000728
663.180693	1.001031
663.521879	1.002333
663.863013	1.001709
664.204097	1.001397
664.545129	1.001485
664.886110	1.001889
665.227040	1.001207
665.567918	1.000843
665.908746	1.000603
666.249522	1.000473
666.590248	1.000804
666.930922	1.001250
667.271545	1.000894
667.612118	1.000962
667.952639	1.001055
668.293109	1.001092
668.633528	1.001215
668.973896	1.002107
669.314213	1.000772
669.654480	1.001245
669.994695	1.001317
670.334859	1.000942
670.674973	1.000638
671.015035	1.000689
671.355047	1.000557
671.695008	1.001061
672.034918	1.000421
672.374777	1.001678
672.714585	1.000356
673.054342	1.001921
673.394049	1.000592
673.733705	1.001129
674.073310	1.001173
674.412864	1.001025
674.752368	1.000352
675.091820	1.002258
675.431223	1.000917
675.770574	1.001222
676.109875	1.000377
676.449125	1.000409
676.788324	1.000602
677.127473	1.001688
677.466571	1.000313
677.805619	1.000882
678.144616	1.001247
678.483562	1.000588
678.822458	1.000499
679.161303	1.001512
679.500098	1.000862
679.838842	1.001657
680.177535	1.001720
680.516179	1.000816
680.854771	1.001259
681.193314	1.001523
681.531805	1.001001
681.870247	1.000323
682.208638	1.000288
682.546978	0.999485
682.885268	1.000489
683.223508	1.000179
683.561697	1.000402
683.899836	1.000760
684.237925	1.001091
684.575963	1.001143
684.913951	1.000502
685.251889	1.001461
685.589776	1.000707
685.927614	1.000377
686.265401	1.001143
686.603137	1.000644
686.940824	1.000463
687.278460	1.000184
687.616046	1.001105
687.953582	0.999881
688.291068	1.000181
688.628504	1.001239
