Dividing Wavelength (nm)	Counts (n)	Blue Motor Position (mm): 0.000000	Red Motor Position (mm): 49.000000	
326.493990	1.000934
326.888308	1.000934
327.282561	1.000934
327.676750	1.000316
328.070874	0.999553
328.464933	1.000901
328.858929	1.000193
329.252859	0.999797
329.646726	1.000337
330.040528	1.001349
330.434265	1.000207
330.827938	1.001488
331.221547	1.001328
331.615091	1.002252
332.008571	1.000019
332.401986	1.001283
332.795338	1.001476
333.188625	0.999653
333.581847	1.001236
333.975006	1.000089
334.368100	1.000227
334.761129	1.000920
335.154095	0.999928
335.546996	0.999332
335.939833	1.000910
336.332606	0.999104
336.725315	1.002232
337.117960	1.000505
337.510540	1.001033
337.903056	1.000797
338.295508	1.000443
338.687896	0.999920
339.080220	1.001072
339.472480	0.999704
339.864676	1.000492
340.256807	0.999970
340.648875	1.000796
341.040879	1.001895
341.432818	1.000647
341.824694	1.000046
342.216506	1.001828
342.608253	1.000599
342.999937	1.000885
343.391557	1.000214
343.783113	1.000670
344.174605	1.000835
344.566033	1.000262
344.957397	0.999492
345.348697	0.999989
345.739934	0.999777
346.131106	1.000279
346.522215	1.000357
346.913260	1.000590
347.304241	1.000452
347.695159	1.000997
348.086012	1.000167
348.476802	1.000635
348.867528	0.999752
349.258191	0.999428
349.648789	1.002389
350.039324	0.999988
350.429796	1.000288
350.820203	1.001130
351.210548	1.000842
351.600828	1.000321
351.991045	1.001080
352.381198	0.999588
352.771288	1.000962
353.161314	0.999325
353.551276	1.002082
353.941175	1.000900
354.331010	0.999337
354.720782	1.000103
355.110490	0.999501
355.500135	1.001691
355.889717	1.000232
356.279235	1.000418
356.668689	0.999979
357.058080	0.999624
357.447408	1.001156
357.836672	0.999516
358.225873	1.000456
358.615010	1.000136
359.004084	1.001375
359.393095	1.000995
359.782043	1.000585
360.170927	1.001404
360.559748	1.001875
360.948505	0.999811
361.337199	0.999494
361.725830	1.000914
362.114398	1.000553
362.502903	1.001372
362.891344	1.001488
363.279722	1.000771
363.668037	1.000863
364.056289	1.000011
364.444478	1.002011
364.832603	1.000710
365.220665	0.998871
365.608665	1.000465
365.996601	1.000445
366.384474	1.000363
366.772284	1.000262
367.160031	0.999937
367.547715	1.000156
367.935336	1.000581
368.322893	1.001337
368.710388	0.999618
369.097820	1.000735
369.485189	1.000057
369.872495	1.000812
370.259738	0.999328
370.646918	1.001024
371.034035	1.001581
371.421090	1.000846
371.808081	1.000420
372.195010	1.000526
372.581875	1.000376
372.968678	1.000426
373.355418	1.000276
373.742096	1.000048
374.128710	1.001100
374.515262	0.999582
374.901751	1.000752
375.288177	1.000416
375.674540	1.000733
376.060841	0.999728
376.447079	0.999854
376.833254	1.000010
377.219367	1.000850
377.605417	1.000494
377.991404	1.000983
378.377329	0.999329
378.763191	0.999695
379.148991	1.000464
379.534727	1.000839
379.920402	1.000556
380.306013	1.000114
380.691563	1.001429
381.077049	0.999691
381.462474	1.000577
381.847835	1.000012
382.233134	0.999835
382.618371	1.000240
383.003545	1.000388
383.388657	0.999472
383.773706	1.000232
384.158693	1.000367
384.543618	1.000479
384.928480	1.001187
385.313280	1.000579
385.698017	1.001761
386.082692	1.000656
386.467305	1.000234
386.851856	0.999734
387.236344	1.001166
387.620770	1.000089
388.005133	0.999969
388.389435	1.001256
388.773674	1.000242
389.157851	1.000659
389.541965	1.001327
389.926018	0.999519
390.310008	1.001450
390.693936	0.999622
391.077802	1.000057
391.461606	1.001154
391.845348	1.001080
392.229027	1.001728
392.612645	1.000918
392.996200	1.001011
393.379694	1.000108
393.763125	1.000878
394.146494	1.000315
394.529801	0.999992
394.913047	1.001059
395.296230	1.001014
395.679351	1.000718
396.062410	0.999616
396.445408	1.000498
396.828343	1.000226
397.211217	1.000301
397.594028	1.000722
397.976778	0.999594
398.359466	1.000913
398.742092	0.999908
399.124656	0.999867
399.507158	0.999651
399.889598	0.999673
400.271977	1.000255
400.654294	1.000834
401.036549	1.000165
401.418742	1.000944
401.800874	1.000393
402.182944	1.001360
402.564952	0.998942
402.946898	1.000736
403.328783	1.000705
403.710606	1.000680
404.092367	0.999642
404.474067	1.001662
404.855705	1.000102
405.237282	1.000403
405.618797	1.000196
406.000250	0.999594
406.381642	1.000507
406.762972	1.000704
407.144240	1.001145
407.525447	1.000917
407.906593	1.000070
408.287677	1.000459
408.668700	1.001271
409.049661	0.999366
409.430560	1.000010
409.811399	1.000533
410.192176	1.000630
410.572891	1.000481
410.953545	1.000291
411.334138	0.999301
411.714669	1.000462
412.095139	0.999894
412.475547	1.001432
412.855894	1.001438
413.236180	1.000613
413.616405	1.000918
413.996568	1.001044
414.376670	0.999791
414.756711	0.999696
415.136691	1.000351
415.516609	1.000523
415.896466	1.000006
416.276262	1.000064
416.655997	1.000803
417.035670	0.999811
417.415283	1.000690
417.794834	1.001327
418.174324	1.000060
418.553753	1.001042
418.933121	1.000655
419.312428	1.000523
419.691674	1.000563
420.070859	1.000598
420.449983	1.001195
420.829045	1.000616
421.208047	1.000806
421.586988	1.001367
421.965867	1.000006
422.344686	1.001230
422.723444	1.000151
423.102141	1.000887
423.480777	1.000702
423.859352	1.000165
424.237866	1.000114
424.616319	1.000594
424.994712	0.999976
425.373044	1.001016
425.751314	1.000317
426.129524	1.000230
426.507673	1.001380
426.885762	1.001759
427.263789	1.000142
427.641756	1.000991
428.019662	1.000847
428.397508	1.000211
428.775292	0.999349
429.153016	1.000059
429.530679	1.000339
429.908282	1.001279
430.285824	1.000526
430.663305	1.000919
431.040726	0.999827
431.418086	1.001237
431.795385	1.002026
432.172624	1.000154
432.549802	1.000363
432.926920	1.001024
433.303977	0.999882
433.680974	1.001057
434.057910	1.000110
434.434786	1.001300
434.811601	1.000496
435.188355	0.999633
435.565050	0.999669
435.941683	1.000175
436.318257	1.001413
436.694770	0.999822
437.071222	1.000496
437.447614	1.000647
437.823946	1.000521
438.200218	1.001071
438.576429	1.000501
438.952580	1.001182
439.328670	1.000110
439.704700	1.000669
440.080670	1.001220
440.456580	1.000704
440.832429	0.999563
441.208218	1.000883
441.583947	1.001257
441.959616	1.000635
442.335224	0.999837
442.710773	1.000505
443.086261	1.000217
443.461689	1.000394
443.837057	1.000592
444.212365	1.000429
444.587612	1.000292
444.962800	0.999445
445.337927	1.000466
445.712995	1.000821
446.088002	1.001309
446.462949	1.000801
446.837837	1.000839
447.212664	1.000696
447.587431	1.000275
447.962139	1.000177
448.336786	1.000387
448.711374	1.000587
449.085901	0.999746
449.460369	1.000943
449.834776	1.000338
450.209124	1.000356
450.583412	1.000066
450.957640	1.000744
451.331808	1.000587
451.705917	1.000953
452.079965	0.999983
452.453954	1.001106
452.827883	1.000174
453.201752	1.001156
453.575562	1.000789
453.949311	1.000426
454.323001	0.999913
454.696632	1.000460
455.070202	1.000376
455.443713	0.999875
455.817164	1.000592
456.190556	1.000859
456.563888	1.000023
456.937160	1.000734
457.310373	1.000722
457.683526	1.000691
458.056619	1.000595
458.429653	0.999756
458.802628	0.999603
459.175542	0.999832
459.548398	1.001047
459.921194	1.000834
460.293930	1.001293
460.666607	1.000004
461.039224	0.999676
461.411782	1.000558
461.784280	1.000039
462.156719	1.001146
462.529099	1.001147
462.901419	1.000645
463.273680	1.000639
463.645882	1.000507
464.018024	1.000701
464.390106	1.000509
464.762130	1.001064
465.134094	1.000793
465.505999	1.000785
465.877845	1.000546
466.249631	1.000476
466.621358	1.000284
466.993026	1.000101
467.364634	1.000560
467.736184	1.000872
468.107674	1.000608
468.479105	1.000499
468.850477	1.000884
469.221790	1.000503
469.593043	1.001130
469.964238	1.000925
470.335373	1.000505
470.706449	1.000757
471.077467	1.001413
471.448425	1.000764
471.819324	1.001354
472.190164	1.000373
472.560945	1.001202
472.931667	1.000574
473.302330	1.000345
473.672934	1.001328
474.043479	1.000371
474.413965	1.001010
474.784393	1.000887
475.154761	1.000714
475.525070	1.000313
475.895321	1.001589
476.265513	1.000389
476.635645	1.000929
477.005719	1.000551
477.375734	0.999689
477.745691	1.000451
478.115588	1.000117
478.485427	1.001168
478.855207	1.000140
479.224928	1.000523
479.594591	1.000991
479.964194	1.000847
480.333739	1.000695
480.703226	1.000741
481.072653	1.001146
481.442022	1.000910
481.811333	0.999296
482.180584	1.000798
482.549777	1.000579
482.918912	1.000944
483.287988	1.000623
483.657005	1.000533
484.025964	1.000882
484.394864	1.001057
484.763706	1.001091
485.132489	1.001151
485.501213	1.000672
485.869879	1.000656
486.238487	1.000740
486.607036	1.000625
486.975527	1.000158
487.343959	0.999626
487.712333	1.000296
488.080648	1.000658
488.448905	1.000503
488.817104	1.000344
489.185244	1.000732
489.553326	1.000865
489.921350	1.000852
490.289315	1.000103
490.657222	1.000811
491.025070	1.001173
491.392861	1.001050
491.760593	1.001598
492.128267	1.000315
492.495883	1.000546
492.863440	1.000456
493.230939	1.000856
493.598380	1.000414
493.965763	1.000755
494.333088	1.000291
494.700354	1.000371
495.067563	1.000473
495.434713	0.999832
495.801805	1.001149
496.168839	1.000182
496.535815	1.000185
496.902733	1.000910
497.269593	1.000476
497.636395	1.000773
498.003139	1.000414
498.369825	1.001174
498.736453	1.000204
499.103023	0.999580
499.469535	1.000136
499.835989	1.000105
500.202385	1.000606
500.568723	1.001101
500.935003	1.000626
501.301226	1.000891
501.667390	1.000953
502.033497	1.000556
502.399546	1.000964
502.765537	0.999836
503.131470	0.999643
503.497345	1.000008
503.863163	1.001676
504.228923	1.001178
504.594625	1.001255
504.960269	1.000877
505.325856	1.000836
505.691385	1.000378
506.056856	1.000848
506.422270	1.001010
506.787625	1.000621
507.152924	1.000938
507.518164	1.000031
507.883347	1.000422
508.248472	1.000375
508.613540	1.000776
508.978550	1.000801
509.343503	1.000774
509.708398	1.000621
510.073236	1.000421
510.438016	1.000980
510.802738	1.000910
511.167403	1.000452
511.532010	1.000310
511.896561	1.000257
512.261053	1.002043
512.625488	1.000271
512.989866	1.000486
513.354186	1.000653
513.718449	1.000388
514.082655	1.000452
514.446803	1.001027
514.810894	1.000910
515.174927	1.000486
515.538904	1.000809
515.902822	1.000136
516.266684	1.000975
516.630488	1.001401
516.994235	1.000681
517.357925	1.000064
517.721558	1.000768
518.085133	1.000531
518.448651	1.001364
518.812112	1.000645
519.175516	1.000344
519.538863	1.000955
519.902152	1.000553
520.265385	1.000247
520.628560	1.000748
520.991678	1.000653
521.354739	1.001019
521.717743	1.000995
522.080690	1.000708
522.443580	1.000307
522.806413	1.001023
523.169189	1.000457
523.531908	1.000066
523.894569	1.000630
524.257174	1.001211
524.619722	1.000597
524.982213	1.000622
525.344647	1.001206
525.707025	1.000652
526.069345	1.000327
526.431608	1.000289
526.793815	1.000983
527.155964	1.000397
527.518057	1.000935
527.880093	1.000787
528.242072	1.000636
528.603995	1.000675
528.965860	1.001789
529.327669	1.000245
529.689421	1.000392
530.051117	1.000883
530.412755	1.000144
530.774337	1.001213
531.135862	1.000988
531.497331	1.001007
531.858743	1.000052
532.220098	1.000777
532.581396	1.001059
532.942638	1.001468
533.303824	1.000381
533.664953	1.000739
534.026025	1.000141
534.387040	1.000086
534.747999	1.001398
535.108902	1.001061
535.469748	1.000478
535.830537	1.000357
536.191270	1.000741
536.551947	1.000677
536.912567	1.000711
537.273131	1.001607
537.633638	0.999867
537.994089	1.000536
538.354483	1.000587
538.714821	1.000861
539.075103	1.000814
539.435328	1.000590
539.795497	1.000494
540.155609	1.000469
540.515665	1.000539
540.875665	1.000520
541.235609	1.000937
541.595496	1.000024
541.955328	1.000152
542.315102	1.000557
542.674821	1.000591
543.034483	1.000268
543.394090	0.999783
543.753640	1.000577
544.113134	1.001045
544.472571	1.000471
544.831953	1.000237
545.191278	1.000731
545.550548	1.001538
545.909761	0.999711
546.268918	1.000986
546.628019	1.000708
546.987064	1.000205
547.346053	1.000731
547.704986	1.000881
548.063863	1.000952
548.422684	1.000854
548.781449	1.000855
549.140158	1.000607
549.498811	1.000918
549.857408	1.001022
550.215949	1.000613
550.574434	1.000681
550.932864	1.000736
551.291237	1.001504
551.649555	1.000882
552.007817	1.000469
552.366022	1.000667
552.724173	1.000882
553.082267	1.001207
553.440305	0.999711
553.798288	1.001125
554.156215	1.000644
554.514086	1.000759
554.871902	1.000400
555.229661	1.001039
555.587365	1.000570
555.945014	1.001142
556.302606	1.000737
556.660143	1.000829
557.017625	1.000458
557.375050	1.000049
557.732421	1.000597
558.089735	1.001042
558.446994	1.001751
558.804197	1.001440
559.161345	1.001332
559.518437	1.001452
559.875474	1.000204
560.232455	1.000504
560.589381	1.000996
560.946251	0.999619
561.303065	1.001051
561.659825	1.001018
562.016528	1.000206
562.373177	1.000595
562.729770	1.000406
563.086307	1.000918
563.442789	1.000661
563.799216	1.000573
564.155587	1.000349
564.511904	0.999885
564.868164	1.000374
565.224370	1.000058
565.580520	1.001016
565.936615	1.000715
566.292654	1.000868
566.648638	1.001156
567.004567	1.000220
567.360441	1.001068
567.716260	1.001270
568.072023	1.000979
568.427732	1.001058
568.783385	1.001313
569.138982	1.000584
569.494525	0.999911
569.850013	1.000480
570.205445	1.000566
570.560823	1.000786
570.916145	1.000779
571.271412	1.000608
571.626625	1.000782
571.981782	1.000114
572.336884	1.001084
572.691931	1.000751
573.046923	1.000251
573.401860	1.000427
573.756743	1.000339
574.111570	1.000823
574.466342	1.000967
574.821059	1.000723
575.175722	1.000768
575.530330	1.000861
575.884882	1.000520
576.239380	1.000824
576.593823	1.000944
576.948211	1.000635
577.302544	1.000740
577.656823	1.001200
578.011047	1.001456
578.365216	1.000349
578.719330	1.000247
579.073389	1.001007
579.427394	1.000430
579.781344	1.000862
580.135239	1.000684
580.489080	1.000443
580.842866	1.000591
581.196597	1.000196
581.550273	1.000558
581.903895	1.000453
582.257463	1.000316
582.610975	1.001099
582.964434	1.000281
583.317837	1.001654
583.671186	1.000360
584.024481	1.000647
584.377721	1.000681
584.730906	1.000566
585.084037	1.001327
585.437113	1.000344
585.790135	1.000618
586.143103	1.000395
586.496016	1.001460
586.848874	1.000360
587.201679	0.999956
587.554428	1.000269
587.907124	1.000205
588.259765	1.000808
588.612352	1.001398
588.964884	1.000552
589.317362	1.000961
589.669786	1.001485
590.022155	1.000702
590.374470	1.000734
590.726731	1.000173
591.078937	0.999183
591.431090	1.000305
591.783188	1.000357
592.135232	1.000363
592.487222	1.000675
592.839157	0.999526
593.191038	1.001263
593.542866	1.000488
593.894639	1.000970
594.246358	1.000209
594.598022	1.000871
594.949633	1.001148
595.301190	1.000432
595.652692	1.000649
596.004141	1.000913
596.355535	1.000891
596.706876	1.000751
597.058162	1.000282
597.409395	1.001350
597.760573	1.000519
598.111698	1.000243
598.462768	1.000600
598.813785	1.000116
599.164748	1.000668
599.515657	0.999833
599.866511	1.000597
600.217312	0.999922
600.568060	1.000238
600.918753	1.001058
601.269392	1.000628
601.619978	1.000406
601.970510	1.000518
602.320988	1.001100
602.671412	1.000834
603.021783	1.000757
603.372100	1.001540
603.722363	1.001610
604.072572	1.001141
604.422728	1.001062
604.772830	1.000705
605.122878	1.000612
605.472872	1.001177
605.822813	1.000001
606.172701	1.000513
606.522534	1.001106
606.872314	1.000748
607.222041	0.999628
607.571714	1.001153
607.921333	0.999883
608.270899	1.000462
608.620411	1.000207
608.969870	1.000772
609.319276	1.000159
609.668627	1.001266
610.017926	1.000260
610.367171	1.000475
610.716362	1.000349
611.065500	1.000621
611.414585	1.000836
611.763616	1.000909
612.112594	1.001270
612.461518	1.000265
612.810389	1.000367
613.159207	1.000464
613.507971	1.000497
613.856682	1.001379
614.205340	1.001496
614.553945	0.999296
614.902496	1.001049
615.250994	1.001215
615.599439	1.001179
615.947830	1.000242
616.296169	1.000117
616.644454	1.000605
616.992686	1.000773
617.340864	1.000862
617.688990	1.001110
618.037063	1.000830
618.385082	1.001118
618.733048	1.000874
619.080961	1.000947
619.428821	1.001122
619.776628	1.000857
620.124382	1.000799
620.472083	0.999617
620.819731	1.001175
621.167326	1.000503
621.514868	1.000306
621.862357	1.000487
622.209793	1.001299
622.557176	0.999882
622.904506	1.000626
623.251783	0.999783
623.599007	1.000019
623.946179	1.000913
624.293297	1.000635
624.640363	1.000490
624.987376	0.999666
625.334336	1.000906
625.681243	1.000403
626.028097	1.001017
626.374899	1.001369
626.721647	1.000335
627.068343	1.000956
627.414987	1.000101
627.761577	1.000960
628.108115	1.000518
628.454600	1.000782
628.801032	1.000403
629.147412	1.001189
629.493739	1.000381
629.840014	1.000689
630.186236	1.000740
630.532405	1.000441
630.878521	1.000359
631.224585	0.999994
631.570597	1.001150
631.916556	1.000686
632.262462	1.001463
632.608316	1.000926
632.954117	1.000735
633.299866	1.000768
633.645562	1.000885
633.991206	1.001014
634.336797	1.000656
634.682336	1.000833
635.027823	1.000443
635.373257	1.001476
635.718639	1.000892
636.063968	1.000406
636.409245	1.000747
636.754470	1.000768
637.099642	1.001225
637.444762	1.001275
637.789829	1.000800
638.134845	1.000464
638.479808	1.000465
638.824719	1.001172
639.169577	1.000580
639.514383	1.000563
639.859137	1.000445
640.203839	1.000591
640.548489	0.999700
640.893086	1.001104
641.237632	1.000642
641.582125	0.999448
641.926566	0.999965
642.270955	1.000715
642.615292	1.001011
642.959576	1.000580
643.303809	1.000850
643.647990	1.000626
643.992118	1.000216
644.336195	1.000782
644.680219	1.001561
645.024192	1.000797
645.368112	1.000686
645.711981	1.001271
646.055797	0.999528
646.399562	0.999922
646.743274	0.999580
647.086935	1.001032
647.430544	1.000423
647.774101	1.000841
648.117606	1.000220
648.461059	0.999843
648.804460	1.000311
649.147810	0.999865
649.491108	1.001068
649.834354	1.000808
650.177548	1.000833
650.520690	1.000457
650.863781	1.000386
651.206820	1.000743
651.549807	1.000911
651.892742	1.000886
652.235626	0.999857
652.578458	1.000801
652.921238	1.000511
653.263967	1.001365
653.606644	1.000787
653.949269	1.000312
654.291843	0.999731
654.634365	0.999564
654.976836	1.000571
655.319255	1.000228
655.661622	1.001204
656.003938	1.000013
656.346203	1.000725
656.688416	1.001070
657.030577	1.000748
657.372687	0.999434
657.714746	0.998939
658.056753	1.000534
658.398708	1.000967
658.740612	1.001448
659.082465	1.001740
659.424266	1.000616
659.766016	1.000241
660.107715	0.999189
660.449362	1.000021
660.790958	1.000609
661.132503	0.999994
661.473996	1.000701
661.815438	1.000187
662.156829	0.999700
662.498168	1.000950
662.839456	0.999827
663.180693	1.000928
663.521879	1.000670
663.863013	1.000443
664.204097	1.001637
664.545129	1.000110
664.886110	1.000699
665.227040	1.000414
665.567918	1.000125
665.908746	0.999889
666.249522	0.999992
666.590248	0.999839
666.930922	1.001492
667.271545	1.000331
667.612118	1.000903
667.952639	1.000663
668.293109	1.000897
668.633528	1.000968
668.973896	1.000441
669.314213	1.000302
669.654480	1.001574
669.994695	1.000643
670.334859	1.000926
670.674973	1.000006
671.015035	1.000339
671.355047	0.999654
671.695008	1.000962
672.034918	1.000405
672.374777	1.000281
672.714585	0.999886
673.054342	1.000517
673.394049	1.000201
673.733705	1.000386
674.073310	0.999997
674.412864	0.999830
674.752368	1.000220
675.091820	1.001662
675.431223	1.000208
675.770574	0.999933
676.109875	1.000269
676.449125	1.000321
676.788324	0.999669
677.127473	1.001816
677.466571	1.000684
677.805619	0.999825
678.144616	0.999955
678.483562	0.999593
678.822458	1.000536
679.161303	1.000815
679.500098	1.000230
679.838842	1.000932
680.177535	1.000934
680.516179	1.000629
680.854771	1.001227
681.193314	1.000589
681.531805	1.000604
681.870247	0.999467
682.208638	0.999506
682.546978	1.000479
682.885268	1.000663
683.223508	1.000468
683.561697	0.999378
683.899836	0.999829
684.237925	1.001113
684.575963	1.000343
684.913951	1.000057
685.251889	1.000729
685.589776	0.999862
685.927614	1.000086
686.265401	1.000510
686.603137	1.000579
686.940824	0.999719
687.278460	0.999929
687.616046	1.000186
687.953582	0.999957
688.291068	0.999915
688.628504	1.000900
