Dividing Wavelength (nm)	Counts (n)	Blue Motor Position (mm): 0.000000	Red Motor Position (mm): 49.400000	
326.493990	1.001076
326.888308	1.001076
327.282561	1.001076
327.676750	1.000209
328.070874	1.001156
328.464933	0.999769
328.858929	1.000683
329.252859	1.000506
329.646726	0.999811
330.040528	1.000356
330.434265	1.000600
330.827938	1.001840
331.221547	0.999939
331.615091	1.000718
332.008571	1.000591
332.401986	1.000631
332.795338	1.000971
333.188625	0.998464
333.581847	1.001707
333.975006	0.999097
334.368100	0.999341
334.761129	1.000917
335.154095	1.000854
335.546996	1.000091
335.939833	0.999991
336.332606	1.001286
336.725315	1.002498
337.117960	1.001608
337.510540	1.001811
337.903056	1.001915
338.295508	0.998713
338.687896	1.000133
339.080220	1.002117
339.472480	1.000105
339.864676	1.000889
340.256807	1.000224
340.648875	1.001883
341.040879	1.001057
341.432818	1.000058
341.824694	1.000627
342.216506	1.002162
342.608253	1.001354
342.999937	0.999561
343.391557	1.000311
343.783113	1.000522
344.174605	1.000184
344.566033	1.001290
344.957397	1.001393
345.348697	0.999644
345.739934	1.000556
346.131106	1.000819
346.522215	1.000208
346.913260	1.000547
347.304241	1.000756
347.695159	1.000947
348.086012	0.999623
348.476802	1.000437
348.867528	1.000313
349.258191	0.999030
349.648789	1.000805
350.039324	1.000463
350.429796	1.000777
350.820203	1.001953
351.210548	1.000238
351.600828	1.000933
351.991045	1.000550
352.381198	0.999896
352.771288	1.000585
353.161314	1.000445
353.551276	1.001510
353.941175	1.000900
354.331010	1.000972
354.720782	1.001600
355.110490	0.999542
355.500135	1.000863
355.889717	1.001015
356.279235	1.000339
356.668689	0.999581
357.058080	1.000094
357.447408	1.001996
357.836672	1.000557
358.225873	1.001258
358.615010	1.001668
359.004084	1.000593
359.393095	1.002007
359.782043	1.000597
360.170927	1.000849
360.559748	1.001637
360.948505	1.000190
361.337199	1.001881
361.725830	1.001623
362.114398	1.000714
362.502903	1.000554
362.891344	1.001689
363.279722	0.998929
363.668037	1.001432
364.056289	0.999529
364.444478	1.001494
364.832603	1.001160
365.220665	1.000681
365.608665	0.999270
365.996601	1.000645
366.384474	1.001745
366.772284	1.001000
367.160031	0.999479
367.547715	0.999219
367.935336	1.000488
368.322893	1.000776
368.710388	0.999354
369.097820	1.000088
369.485189	0.999830
369.872495	0.999803
370.259738	0.997926
370.646918	1.001805
371.034035	1.000938
371.421090	1.000180
371.808081	1.000512
372.195010	1.001961
372.581875	1.001015
372.968678	0.999760
373.355418	0.999883
373.742096	0.999476
374.128710	1.001235
374.515262	0.999741
374.901751	1.001404
375.288177	1.001277
375.674540	1.000637
376.060841	1.000180
376.447079	1.000021
376.833254	1.000868
377.219367	1.000745
377.605417	1.000069
377.991404	1.000783
378.377329	0.999468
378.763191	1.000294
379.148991	1.001499
379.534727	1.001463
379.920402	1.000473
380.306013	1.001131
380.691563	1.002001
381.077049	1.000780
381.462474	0.999782
381.847835	1.001457
382.233134	1.000416
382.618371	1.000735
383.003545	1.000892
383.388657	1.000670
383.773706	1.001509
384.158693	1.001382
384.543618	1.000481
384.928480	1.000948
385.313280	1.001685
385.698017	1.001124
386.082692	1.001030
386.467305	1.000690
386.851856	1.000294
387.236344	1.000113
387.620770	0.999319
388.005133	1.000884
388.389435	1.002084
388.773674	1.000173
389.157851	1.000927
389.541965	1.000488
389.926018	1.000462
390.310008	1.001971
390.693936	1.000378
391.077802	1.000334
391.461606	1.000531
391.845348	1.001401
392.229027	1.001090
392.612645	1.000381
392.996200	1.001510
393.379694	1.000304
393.763125	1.002143
394.146494	1.001698
394.529801	0.999583
394.913047	1.001536
395.296230	1.000983
395.679351	1.000937
396.062410	1.000622
396.445408	1.000436
396.828343	1.000818
397.211217	1.000786
397.594028	1.001568
397.976778	1.000206
398.359466	1.000910
398.742092	1.000068
399.124656	0.999991
399.507158	1.001122
399.889598	1.001015
400.271977	1.000870
400.654294	1.001495
401.036549	1.001083
401.418742	1.001567
401.800874	0.999816
402.182944	1.000409
402.564952	0.999932
402.946898	1.001169
403.328783	1.000684
403.710606	1.000778
404.092367	1.000483
404.474067	1.000661
404.855705	1.001280
405.237282	1.001417
405.618797	1.000787
406.000250	1.000259
406.381642	1.000605
406.762972	1.001228
407.144240	1.001902
407.525447	1.001132
407.906593	1.001411
408.287677	1.001444
408.668700	1.001624
409.049661	0.999782
409.430560	1.001306
409.811399	1.000464
410.192176	1.000816
410.572891	1.000594
410.953545	1.001055
411.334138	0.999598
411.714669	1.000826
412.095139	0.999818
412.475547	1.001207
412.855894	1.000729
413.236180	1.001159
413.616405	1.001189
413.996568	1.001533
414.376670	1.000791
414.756711	1.000783
415.136691	1.000854
415.516609	1.001140
415.896466	1.000944
416.276262	0.999572
416.655997	1.001246
417.035670	1.000106
417.415283	1.000425
417.794834	1.000779
418.174324	1.000773
418.553753	1.001076
418.933121	1.000560
419.312428	1.000682
419.691674	1.000722
420.070859	1.001306
420.449983	1.000407
420.829045	1.000932
421.208047	1.001382
421.586988	1.001502
421.965867	1.000699
422.344686	1.000868
422.723444	1.000562
423.102141	1.000905
423.480777	1.000649
423.859352	1.000439
424.237866	1.000533
424.616319	1.001319
424.994712	1.001242
425.373044	1.001390
425.751314	1.000206
426.129524	1.000621
426.507673	1.000731
426.885762	1.001149
427.263789	1.000164
427.641756	1.000489
428.019662	1.001183
428.397508	1.000411
428.775292	1.000136
429.153016	1.000548
429.530679	1.002189
429.908282	1.000738
430.285824	1.000251
430.663305	1.001408
431.040726	1.000329
431.418086	1.002761
431.795385	1.001513
432.172624	1.000377
432.549802	1.000929
432.926920	1.000885
433.303977	1.000748
433.680974	1.001011
434.057910	1.000791
434.434786	1.001861
434.811601	1.001062
435.188355	1.000820
435.565050	1.000442
435.941683	1.000301
436.318257	1.000868
436.694770	1.000647
437.071222	1.000983
437.447614	1.000636
437.823946	1.001033
438.200218	1.000664
438.576429	1.000822
438.952580	1.001545
439.328670	1.000930
439.704700	1.001346
440.080670	1.001356
440.456580	1.001016
440.832429	1.000723
441.208218	1.000837
441.583947	1.001554
441.959616	1.000751
442.335224	1.001112
442.710773	1.001657
443.086261	1.000785
443.461689	1.001056
443.837057	1.000412
444.212365	1.000720
444.587612	1.001313
444.962800	1.000695
445.337927	1.001222
445.712995	1.001000
446.088002	1.001048
446.462949	1.000799
446.837837	1.000779
447.212664	1.001881
447.587431	1.001075
447.962139	1.000862
448.336786	1.000950
448.711374	1.000751
449.085901	1.000733
449.460369	1.001699
449.834776	1.001080
450.209124	1.001146
450.583412	1.000844
450.957640	1.001046
451.331808	0.999955
451.705917	1.001202
452.079965	1.000358
452.453954	1.001002
452.827883	1.000458
453.201752	1.000945
453.575562	1.001082
453.949311	1.001625
454.323001	1.000904
454.696632	1.000126
455.070202	1.000999
455.443713	1.000333
455.817164	1.000568
456.190556	1.000328
456.563888	1.000557
456.937160	1.001413
457.310373	1.001178
457.683526	1.000618
458.056619	1.000935
458.429653	1.000796
458.802628	1.000280
459.175542	1.000824
459.548398	1.001076
459.921194	1.000518
460.293930	1.000531
460.666607	1.000874
461.039224	1.000228
461.411782	1.000795
461.784280	1.000140
462.156719	1.001306
462.529099	1.000649
462.901419	1.000807
463.273680	1.001147
463.645882	1.000479
464.018024	1.001021
464.390106	1.000575
464.762130	1.001851
465.134094	1.000406
465.505999	1.001085
465.877845	1.000649
466.249631	1.001824
466.621358	1.000535
466.993026	1.001086
467.364634	1.000583
467.736184	1.002039
468.107674	1.000557
468.479105	1.000710
468.850477	1.001220
469.221790	1.000691
469.593043	1.001258
469.964238	1.001962
470.335373	1.000515
470.706449	1.000780
471.077467	1.001461
471.448425	1.001371
471.819324	1.001364
472.190164	1.000780
472.560945	1.001096
472.931667	1.001329
473.302330	1.000702
473.672934	1.000867
474.043479	1.000869
474.413965	1.000564
474.784393	1.001410
475.154761	1.000092
475.525070	1.000808
475.895321	1.001040
476.265513	1.001040
476.635645	1.000847
477.005719	1.000943
477.375734	1.000890
477.745691	1.001518
478.115588	1.001230
478.485427	1.001309
478.855207	1.001181
479.224928	1.000891
479.594591	1.000704
479.964194	1.001157
480.333739	1.001813
480.703226	1.000697
481.072653	1.001895
481.442022	1.001766
481.811333	1.000633
482.180584	1.001312
482.549777	1.001131
482.918912	1.001524
483.287988	1.001163
483.657005	1.000822
484.025964	1.001444
484.394864	1.001791
484.763706	1.001342
485.132489	1.000920
485.501213	1.000936
485.869879	1.000961
486.238487	1.001346
486.607036	1.001264
486.975527	1.001224
487.343959	1.001073
487.712333	1.001109
488.080648	1.001080
488.448905	1.001336
488.817104	1.001230
489.185244	1.001283
489.553326	1.001381
489.921350	1.000336
490.289315	1.001410
490.657222	1.001455
491.025070	1.001185
491.392861	1.002198
491.760593	1.001124
492.128267	1.001423
492.495883	1.001087
492.863440	1.001748
493.230939	1.001845
493.598380	1.001177
493.965763	1.000876
494.333088	1.001788
494.700354	1.000990
495.067563	1.001756
495.434713	1.001520
495.801805	1.002029
496.168839	1.001760
496.535815	1.000418
496.902733	1.001167
497.269593	1.000451
497.636395	1.001459
498.003139	1.000499
498.369825	1.002336
498.736453	1.000737
499.103023	1.001096
499.469535	1.000756
499.835989	1.001015
500.202385	1.001091
500.568723	1.001834
500.935003	1.001458
501.301226	1.001525
501.667390	1.001229
502.033497	1.001454
502.399546	1.001514
502.765537	1.000944
503.131470	1.000558
503.497345	1.000531
503.863163	1.002035
504.228923	1.001094
504.594625	1.000949
504.960269	1.001828
505.325856	1.001601
505.691385	1.000902
506.056856	1.001315
506.422270	1.001052
506.787625	1.001422
507.152924	1.000704
507.518164	1.000951
507.883347	1.001252
508.248472	1.001057
508.613540	1.001375
508.978550	1.000902
509.343503	1.000858
509.708398	1.000939
510.073236	1.001364
510.438016	1.001775
510.802738	1.001190
511.167403	1.001635
511.532010	1.001042
511.896561	1.000878
512.261053	1.001614
512.625488	1.001257
512.989866	1.000648
513.354186	1.001160
513.718449	1.001092
514.082655	1.000898
514.446803	1.001188
514.810894	1.001885
515.174927	1.001379
515.538904	1.000891
515.902822	1.000981
516.266684	1.001846
516.630488	1.001866
516.994235	1.000669
517.357925	1.001001
517.721558	1.000886
518.085133	1.000502
518.448651	1.002004
518.812112	1.000478
519.175516	1.001344
519.538863	1.001875
519.902152	1.001087
520.265385	1.000923
520.628560	1.000888
520.991678	1.001565
521.354739	1.001921
521.717743	1.000516
522.080690	1.001527
522.443580	1.000673
522.806413	1.001089
523.169189	1.001115
523.531908	1.000714
523.894569	1.000869
524.257174	1.001596
524.619722	1.001126
524.982213	1.001236
525.344647	1.001492
525.707025	1.000835
526.069345	1.000777
526.431608	1.000191
526.793815	1.000745
527.155964	1.001432
527.518057	1.000949
527.880093	1.001245
528.242072	1.000794
528.603995	1.000893
528.965860	1.001050
529.327669	1.000637
529.689421	1.000502
530.051117	1.001957
530.412755	1.001591
530.774337	1.001460
531.135862	1.001068
531.497331	1.001336
531.858743	1.001413
532.220098	1.000905
532.581396	1.001566
532.942638	1.001769
533.303824	1.001156
533.664953	1.001010
534.026025	1.000790
534.387040	1.000579
534.747999	1.000639
535.108902	1.001410
535.469748	1.001086
535.830537	1.001190
536.191270	1.001946
536.551947	1.000928
536.912567	1.001288
537.273131	1.001780
537.633638	1.000653
537.994089	1.001184
538.354483	1.001000
538.714821	1.001266
539.075103	1.001568
539.435328	1.000781
539.795497	1.001476
540.155609	1.000701
540.515665	1.000960
540.875665	1.001351
541.235609	1.001480
541.595496	1.000325
541.955328	1.000864
542.315102	1.000744
542.674821	1.001089
543.034483	1.001191
543.394090	1.001351
543.753640	1.001461
544.113134	1.001443
544.472571	1.001327
544.831953	1.001173
545.191278	1.001087
545.550548	1.001797
545.909761	1.000243
546.268918	1.001521
546.628019	1.001848
546.987064	1.000999
547.346053	1.001472
547.704986	1.001688
548.063863	1.000768
548.422684	1.001162
548.781449	1.001875
549.140158	1.000682
549.498811	1.001491
549.857408	1.001301
550.215949	1.001203
550.574434	1.001097
550.932864	1.001561
551.291237	1.001529
551.649555	1.000958
552.007817	1.001081
552.366022	1.000848
552.724173	1.001543
553.082267	1.000986
553.440305	1.000910
553.798288	1.000891
554.156215	1.001165
554.514086	1.001347
554.871902	1.000413
555.229661	1.000966
555.587365	1.000377
555.945014	1.002308
556.302606	1.000733
556.660143	1.001392
557.017625	1.000467
557.375050	1.000696
557.732421	1.000828
558.089735	1.001294
558.446994	1.001635
558.804197	1.001559
559.161345	1.001541
559.518437	1.002063
559.875474	1.000334
560.232455	1.000643
560.589381	1.001052
560.946251	1.000823
561.303065	1.001387
561.659825	1.001512
562.016528	1.000959
562.373177	1.001524
562.729770	1.000744
563.086307	1.000704
563.442789	1.001060
563.799216	1.000790
564.155587	1.000399
564.511904	1.000283
564.868164	1.000507
565.224370	1.001334
565.580520	1.000826
565.936615	1.001001
566.292654	1.000692
566.648638	1.000849
567.004567	1.000316
567.360441	1.000997
567.716260	1.001570
568.072023	1.000589
568.427732	1.000636
568.783385	1.001594
569.138982	1.000990
569.494525	1.000558
569.850013	1.000771
570.205445	1.000685
570.560823	1.001076
570.916145	1.000763
571.271412	1.000872
571.626625	1.000765
571.981782	1.000251
572.336884	1.001726
572.691931	1.001538
573.046923	1.000684
573.401860	1.000756
573.756743	1.000878
574.111570	1.001034
574.466342	1.001124
574.821059	1.001223
575.175722	1.000901
575.530330	1.001546
575.884882	1.000992
576.239380	1.001660
576.593823	1.001137
576.948211	1.000659
577.302544	1.000300
577.656823	1.000650
578.011047	1.001230
578.365216	1.001176
578.719330	1.000128
579.073389	1.001715
579.427394	1.000539
579.781344	1.001235
580.135239	1.000739
580.489080	1.000922
580.842866	1.001009
581.196597	1.000615
581.550273	1.000740
581.903895	1.001203
582.257463	1.000390
582.610975	1.000615
582.964434	1.000821
583.317837	1.001676
583.671186	1.000665
584.024481	1.000386
584.377721	1.001301
584.730906	1.000832
585.084037	1.000784
585.437113	1.001075
585.790135	1.000763
586.143103	1.000294
586.496016	1.001366
586.848874	1.001111
587.201679	1.000703
587.554428	1.001062
587.907124	1.000734
588.259765	1.000714
588.612352	1.001310
588.964884	1.001463
589.317362	1.001463
589.669786	1.000547
590.022155	1.000765
590.374470	1.000558
590.726731	1.000101
591.078937	1.000938
591.431090	1.000066
591.783188	1.000364
592.135232	1.000524
592.487222	1.001405
592.839157	1.000100
593.191038	1.000897
593.542866	1.000648
593.894639	1.001081
594.246358	1.000274
594.598022	1.000047
594.949633	1.000695
595.301190	1.000599
595.652692	1.000324
596.004141	1.001456
596.355535	1.000165
596.706876	1.000426
597.058162	1.000672
597.409395	1.001470
597.760573	1.000749
598.111698	1.000960
598.462768	1.000798
598.813785	1.000653
599.164748	1.000614
599.515657	1.000360
599.866511	1.000343
600.217312	1.000490
600.568060	1.000737
600.918753	1.000985
601.269392	1.000849
601.619978	1.001267
601.970510	1.000446
602.320988	1.001034
602.671412	1.000235
603.021783	1.000739
603.372100	1.001849
603.722363	1.001684
604.072572	0.999866
604.422728	1.000733
604.772830	1.000485
605.122878	1.000784
605.472872	1.001219
605.822813	1.000140
606.172701	1.000355
606.522534	1.001340
606.872314	1.000227
607.222041	1.000609
607.571714	1.001098
607.921333	1.000418
608.270899	1.001199
608.620411	1.000350
608.969870	1.001074
609.319276	0.999801
609.668627	1.001720
610.017926	1.000412
610.367171	1.000413
610.716362	1.000072
611.065500	0.999801
611.414585	1.000286
611.763616	1.000366
612.112594	1.000304
612.461518	1.000712
612.810389	1.000281
613.159207	1.000246
613.507971	1.000225
613.856682	1.000814
614.205340	1.000964
614.553945	0.999972
614.902496	1.000480
615.250994	1.000263
615.599439	1.000561
615.947830	1.000785
616.296169	1.001203
616.644454	0.999552
616.992686	1.000955
617.340864	1.001325
617.688990	1.000800
618.037063	1.001113
618.385082	1.000829
618.733048	1.000992
619.080961	1.000477
619.428821	1.001233
619.776628	1.000365
620.124382	1.001103
620.472083	0.999428
620.819731	1.001081
621.167326	1.000265
621.514868	1.000546
621.862357	1.000795
622.209793	1.001276
622.557176	0.999502
622.904506	1.000488
623.251783	0.999590
623.599007	1.000913
623.946179	1.000726
624.293297	1.000464
624.640363	1.000571
624.987376	1.000335
625.334336	1.001227
625.681243	1.000118
626.028097	1.001360
626.374899	1.001344
626.721647	1.000514
627.068343	1.000809
627.414987	0.999678
627.761577	1.000513
628.108115	1.000561
628.454600	1.001121
628.801032	1.000044
629.147412	1.001406
629.493739	0.999952
629.840014	1.000340
630.186236	1.000515
630.532405	1.000803
630.878521	1.000675
631.224585	1.000275
631.570597	1.000255
631.916556	1.000215
632.262462	1.000782
632.608316	1.000911
632.954117	1.000259
633.299866	1.000278
633.645562	1.000385
633.991206	1.000307
634.336797	1.000740
634.682336	1.000378
635.027823	1.001030
635.373257	1.000554
635.718639	1.000306
636.063968	1.000287
636.409245	1.000118
636.754470	1.001091
637.099642	1.000531
637.444762	1.000842
637.789829	1.000302
638.134845	1.000863
638.479808	1.000620
638.824719	1.000789
639.169577	1.000086
639.514383	1.000029
639.859137	1.000322
640.203839	1.000884
640.548489	1.000593
640.893086	1.000565
641.237632	1.001289
641.582125	0.999721
641.926566	1.000151
642.270955	1.000837
642.615292	1.000244
642.959576	1.001227
643.303809	1.000336
643.647990	0.999931
643.992118	1.000002
644.336195	1.000966
644.680219	1.000801
645.024192	1.000767
645.368112	0.999185
645.711981	1.000677
646.055797	1.000670
646.399562	1.000080
646.743274	0.999607
647.086935	1.000445
647.430544	1.000366
647.774101	1.000350
648.117606	0.999833
648.461059	1.000198
648.804460	1.000730
649.147810	0.999721
649.491108	1.000542
649.834354	1.000187
650.177548	1.001186
650.520690	1.000737
650.863781	1.000367
651.206820	1.000695
651.549807	1.000618
651.892742	1.000294
652.235626	1.000680
652.578458	1.000242
652.921238	1.000174
653.263967	1.000803
653.606644	1.000837
653.949269	1.001307
654.291843	1.000324
654.634365	0.999818
654.976836	1.000754
655.319255	1.000675
655.661622	1.000444
656.003938	1.000467
656.346203	1.000680
656.688416	1.000954
657.030577	1.000925
657.372687	1.000609
657.714746	0.999620
658.056753	1.000246
658.398708	1.001011
658.740612	1.000445
659.082465	1.000770
659.424266	1.000588
659.766016	0.999251
660.107715	0.999460
660.449362	0.999932
660.790958	1.000188
661.132503	0.999724
661.473996	1.001398
661.815438	1.000260
662.156829	1.000113
662.498168	1.001058
662.839456	0.999700
663.180693	1.001300
663.521879	1.000829
663.863013	1.002457
664.204097	1.000407
664.545129	1.000489
664.886110	0.999774
665.227040	0.999917
665.567918	0.999980
665.908746	1.000792
666.249522	0.999505
666.590248	0.999926
666.930922	1.000966
667.271545	1.000094
667.612118	1.000588
667.952639	1.000433
668.293109	0.999767
668.633528	1.001277
668.973896	1.000939
669.314213	1.000166
669.654480	1.000387
669.994695	1.000473
670.334859	1.001081
670.674973	0.999808
671.015035	1.000377
671.355047	1.001082
671.695008	1.000955
672.034918	1.000622
672.374777	1.000512
672.714585	1.000384
673.054342	1.000653
673.394049	1.000424
673.733705	0.999100
674.073310	1.000571
674.412864	1.000496
674.752368	1.000074
675.091820	1.001523
675.431223	1.000354
675.770574	1.000221
676.109875	1.000184
676.449125	1.000385
676.788324	1.000207
677.127473	1.001311
677.466571	1.000470
677.805619	1.000205
678.144616	1.000903
678.483562	0.999349
678.822458	0.999738
679.161303	1.000904
679.500098	1.000332
679.838842	1.001192
680.177535	1.000495
680.516179	1.000630
680.854771	1.000420
681.193314	1.000872
681.531805	1.000427
681.870247	0.999913
682.208638	1.000161
682.546978	0.999800
682.885268	1.000904
683.223508	1.000740
683.561697	1.000176
683.899836	1.001335
684.237925	1.000640
684.575963	1.000682
684.913951	0.999508
685.251889	1.001051
685.589776	1.000611
685.927614	1.000514
686.265401	1.000218
686.603137	1.000012
686.940824	1.000616
687.278460	1.000029
687.616046	1.000263
687.953582	1.000709
688.291068	1.000274
688.628504	1.001209
