Dividing Wavelength (nm)	Counts (n)	Blue Motor Position (mm): 0.000000	Red Motor Position (mm): 46.100000	
326.493990	1.000258
326.888308	1.000258
327.282561	1.000258
327.676750	0.998994
328.070874	0.998577
328.464933	0.999270
328.858929	0.999443
329.252859	1.000335
329.646726	0.998469
330.040528	0.999827
330.434265	0.999641
330.827938	1.000331
331.221547	0.999894
331.615091	0.999630
332.008571	1.001002
332.401986	0.998840
332.795338	0.999987
333.188625	0.998037
333.581847	1.001126
333.975006	0.999718
334.368100	1.000207
334.761129	0.999224
335.154095	1.000290
335.546996	0.998536
335.939833	0.998890
336.332606	0.998510
336.725315	0.999518
337.117960	0.999770
337.510540	1.000189
337.903056	0.999679
338.295508	0.998307
338.687896	1.000265
339.080220	0.999694
339.472480	0.999853
339.864676	0.999961
340.256807	0.999733
340.648875	1.000913
341.040879	0.999949
341.432818	0.999697
341.824694	0.999339
342.216506	1.000555
342.608253	1.000353
342.999937	1.000406
343.391557	0.999889
343.783113	0.999279
344.174605	0.999562
344.566033	1.000146
344.957397	0.998438
345.348697	0.999691
345.739934	1.000106
346.131106	0.999152
346.522215	0.999351
346.913260	0.998992
347.304241	0.999622
347.695159	0.999743
348.086012	0.998686
348.476802	0.999708
348.867528	0.999559
349.258191	0.998280
349.648789	0.999696
350.039324	0.998238
350.429796	0.999954
350.820203	1.000340
351.210548	0.999341
351.600828	0.999492
351.991045	0.999480
352.381198	0.998956
352.771288	1.000022
353.161314	1.000009
353.551276	1.001526
353.941175	1.001203
354.331010	0.999489
354.720782	0.999515
355.110490	1.000116
355.500135	1.000358
355.889717	1.000192
356.279235	0.999170
356.668689	0.998903
357.058080	1.000345
357.447408	1.000193
357.836672	1.000211
358.225873	1.000540
358.615010	1.000109
359.004084	0.999729
359.393095	1.000433
359.782043	0.999009
360.170927	1.000194
360.559748	1.001292
360.948505	0.998836
361.337199	0.999374
361.725830	0.999513
362.114398	0.999494
362.502903	1.000376
362.891344	1.000917
363.279722	0.999763
363.668037	0.999349
364.056289	0.999996
364.444478	1.000686
364.832603	0.999782
365.220665	1.000383
365.608665	0.999327
365.996601	1.000920
366.384474	0.999756
366.772284	1.000049
367.160031	0.997338
367.547715	0.999082
367.935336	0.998829
368.322893	1.000315
368.710388	0.998862
369.097820	0.999913
369.485189	0.999384
369.872495	0.998890
370.259738	0.997930
370.646918	1.001050
371.034035	0.999049
371.421090	1.000216
371.808081	0.999193
372.195010	0.999915
372.581875	1.000682
372.968678	0.999617
373.355418	0.999684
373.742096	0.999598
374.128710	1.000267
374.515262	0.999162
374.901751	0.999694
375.288177	0.999641
375.674540	1.000244
376.060841	0.999199
376.447079	0.999297
376.833254	0.999634
377.219367	1.000612
377.605417	0.999869
377.991404	1.000300
378.377329	0.998829
378.763191	0.999494
379.148991	1.000278
379.534727	0.999890
379.920402	0.999565
380.306013	1.000587
380.691563	1.000541
381.077049	1.000311
381.462474	0.999921
381.847835	0.999331
382.233134	0.999170
382.618371	0.999571
383.003545	0.999654
383.388657	0.999433
383.773706	1.001460
384.158693	0.999510
384.543618	0.999804
384.928480	1.000633
385.313280	0.999392
385.698017	1.000550
386.082692	1.000177
386.467305	1.000492
386.851856	0.999895
387.236344	0.999870
387.620770	0.999124
388.005133	1.000136
388.389435	1.001149
388.773674	1.000267
389.157851	1.001570
389.541965	0.999962
389.926018	0.999492
390.310008	1.000700
390.693936	1.000387
391.077802	1.000595
391.461606	1.000142
391.845348	0.999940
392.229027	1.001546
392.612645	1.000989
392.996200	1.001655
393.379694	0.999881
393.763125	1.001442
394.146494	1.001678
394.529801	1.000408
394.913047	1.001109
395.296230	1.000107
395.679351	1.000688
396.062410	1.000593
396.445408	1.000163
396.828343	1.000511
397.211217	1.000068
397.594028	1.001430
397.976778	1.000641
398.359466	1.000058
398.742092	1.000131
399.124656	0.998898
399.507158	0.999531
399.889598	0.999714
400.271977	1.001074
400.654294	1.000519
401.036549	1.000117
401.418742	1.001219
401.800874	0.999781
402.182944	0.999706
402.564952	1.000292
402.946898	1.000704
403.328783	1.000840
403.710606	0.999741
404.092367	1.000659
404.474067	1.000403
404.855705	1.000129
405.237282	1.000503
405.618797	1.000048
406.000250	0.999791
406.381642	1.000802
406.762972	1.000955
407.144240	1.001359
407.525447	1.000124
407.906593	1.000621
408.287677	1.001414
408.668700	1.000883
409.049661	0.999665
409.430560	1.000177
409.811399	1.000509
410.192176	1.000538
410.572891	0.999476
410.953545	1.000092
411.334138	0.999389
411.714669	1.001316
412.095139	1.000407
412.475547	1.001579
412.855894	1.000337
413.236180	1.001081
413.616405	1.000796
413.996568	1.001206
414.376670	1.000373
414.756711	0.999558
415.136691	0.999778
415.516609	0.999959
415.896466	0.999807
416.276262	0.998923
416.655997	1.000624
417.035670	1.000318
417.415283	1.000754
417.794834	1.000929
418.174324	1.000417
418.553753	1.000787
418.933121	1.000197
419.312428	1.000036
419.691674	1.000257
420.070859	0.999973
420.449983	1.001006
420.829045	1.000404
421.208047	1.001297
421.586988	1.001666
421.965867	1.000155
422.344686	1.001307
422.723444	1.001191
423.102141	1.000687
423.480777	1.000662
423.859352	1.000330
424.237866	1.000388
424.616319	1.000851
424.994712	1.000812
425.373044	1.000869
425.751314	1.001138
426.129524	1.000485
426.507673	1.000756
426.885762	1.001280
427.263789	1.000484
427.641756	1.001158
428.019662	1.000488
428.397508	1.000053
428.775292	0.999911
429.153016	1.000610
429.530679	1.001082
429.908282	1.000996
430.285824	1.000995
430.663305	1.000320
431.040726	1.000378
431.418086	1.001790
431.795385	1.001281
432.172624	1.001046
432.549802	1.001333
432.926920	1.000930
433.303977	1.000032
433.680974	1.000712
434.057910	1.001661
434.434786	1.001218
434.811601	0.999992
435.188355	1.000575
435.565050	1.000379
435.941683	1.000645
436.318257	1.001711
436.694770	0.999822
437.071222	1.001308
437.447614	1.000901
437.823946	1.000824
438.200218	1.001121
438.576429	1.001261
438.952580	1.001162
439.328670	1.001033
439.704700	1.000908
440.080670	1.000357
440.456580	1.000794
440.832429	1.000114
441.208218	1.001490
441.583947	1.001067
441.959616	1.001044
442.335224	1.000315
442.710773	1.000825
443.086261	0.999954
443.461689	1.000469
443.837057	1.000087
444.212365	1.001465
444.587612	1.000922
444.962800	1.000724
445.337927	1.000917
445.712995	1.000806
446.088002	1.000970
446.462949	1.000757
446.837837	1.001691
447.212664	1.000907
447.587431	1.000387
447.962139	1.000233
448.336786	1.000334
448.711374	1.000797
449.085901	1.000309
449.460369	1.000903
449.834776	1.000974
450.209124	1.000800
450.583412	1.001053
450.957640	0.999746
451.331808	1.000922
451.705917	1.000569
452.079965	1.000314
452.453954	1.000824
452.827883	1.000743
453.201752	1.001303
453.575562	1.001108
453.949311	1.001397
454.323001	1.000771
454.696632	1.000777
455.070202	1.000955
455.443713	1.000304
455.817164	1.001447
456.190556	1.000606
456.563888	1.000331
456.937160	1.001282
457.310373	1.000291
457.683526	1.000591
458.056619	1.000491
458.429653	1.001198
458.802628	0.999686
459.175542	1.000905
459.548398	1.001426
459.921194	1.000296
460.293930	1.000844
460.666607	0.999898
461.039224	1.000135
461.411782	1.000493
461.784280	1.000128
462.156719	1.001234
462.529099	1.000349
462.901419	1.000965
463.273680	1.000051
463.645882	1.001141
464.018024	1.000816
464.390106	1.000695
464.762130	1.001381
465.134094	1.000870
465.505999	0.999802
465.877845	0.999829
466.249631	1.000556
466.621358	1.000615
466.993026	1.000629
467.364634	1.001204
467.736184	1.001173
468.107674	1.000517
468.479105	1.000038
468.850477	1.001038
469.221790	1.000826
469.593043	1.001226
469.964238	1.001303
470.335373	1.000675
470.706449	1.000961
471.077467	1.001183
471.448425	1.000061
471.819324	1.000949
472.190164	1.000485
472.560945	1.000916
472.931667	1.000539
473.302330	0.999916
473.672934	1.000970
474.043479	1.001400
474.413965	1.001096
474.784393	1.001259
475.154761	1.000644
475.525070	0.999544
475.895321	1.001151
476.265513	1.000541
476.635645	1.000354
477.005719	1.000690
477.375734	1.000110
477.745691	1.000685
478.115588	1.000962
478.485427	1.000327
478.855207	1.000268
479.224928	1.000672
479.594591	1.000795
479.964194	1.001292
480.333739	1.000521
480.703226	1.000900
481.072653	1.002052
481.442022	1.001852
481.811333	1.000287
482.180584	1.001647
482.549777	1.000175
482.918912	1.000919
483.287988	1.000926
483.657005	1.000828
484.025964	1.001277
484.394864	1.001220
484.763706	1.001203
485.132489	1.001448
485.501213	1.001092
485.869879	1.001842
486.238487	1.000958
486.607036	1.001291
486.975527	1.000913
487.343959	1.000302
487.712333	1.001000
488.080648	1.001242
488.448905	1.000967
488.817104	1.001935
489.185244	1.001061
489.553326	1.000849
489.921350	1.000225
490.289315	1.001077
490.657222	1.000886
491.025070	1.001099
491.392861	1.001640
491.760593	1.001581
492.128267	1.000267
492.495883	1.001163
492.863440	1.001307
493.230939	1.001457
493.598380	1.001288
493.965763	1.000762
494.333088	1.000761
494.700354	1.001174
495.067563	1.001719
495.434713	1.000766
495.801805	1.001540
496.168839	1.000763
496.535815	1.000624
496.902733	1.000306
497.269593	1.000427
497.636395	1.001300
498.003139	1.000621
498.369825	1.001663
498.736453	1.001270
499.103023	1.000511
499.469535	1.000996
499.835989	1.000769
500.202385	1.001538
500.568723	1.001521
500.935003	1.001401
501.301226	1.001413
501.667390	1.000757
502.033497	1.001193
502.399546	1.001459
502.765537	1.000752
503.131470	1.000875
503.497345	1.000572
503.863163	1.001621
504.228923	1.000763
504.594625	1.001187
504.960269	1.001134
505.325856	1.001142
505.691385	1.000536
506.056856	1.000944
506.422270	1.000766
506.787625	1.001496
507.152924	1.001126
507.518164	1.000629
507.883347	1.001522
508.248472	1.001012
508.613540	1.001202
508.978550	1.001348
509.343503	1.000582
509.708398	1.001163
510.073236	1.001498
510.438016	1.001333
510.802738	1.001797
511.167403	1.001376
511.532010	1.001201
511.896561	1.000916
512.261053	1.001713
512.625488	1.000504
512.989866	1.000983
513.354186	1.000302
513.718449	1.001205
514.082655	1.000753
514.446803	1.000962
514.810894	1.001137
515.174927	1.001347
515.538904	1.000891
515.902822	1.000757
516.266684	1.001252
516.630488	1.001269
516.994235	1.000682
517.357925	1.000949
517.721558	1.001054
518.085133	1.000484
518.448651	1.001515
518.812112	1.000938
519.175516	1.000860
519.538863	1.001067
519.902152	1.000917
520.265385	1.000719
520.628560	1.000919
520.991678	1.001134
521.354739	1.001458
521.717743	1.000845
522.080690	1.000391
522.443580	1.000550
522.806413	1.001033
523.169189	1.000915
523.531908	1.000156
523.894569	1.000744
524.257174	1.000841
524.619722	1.001195
524.982213	1.001523
525.344647	1.000612
525.707025	1.000754
526.069345	1.000737
526.431608	1.000591
526.793815	1.001433
527.155964	1.001013
527.518057	1.000600
527.880093	1.000844
528.242072	1.000995
528.603995	0.999953
528.965860	1.001810
529.327669	1.000840
529.689421	1.000561
530.051117	1.001336
530.412755	1.000725
530.774337	1.000954
531.135862	1.001039
531.497331	1.000875
531.858743	1.001201
532.220098	1.000647
532.581396	1.001176
532.942638	1.001286
533.303824	1.000799
533.664953	1.001247
534.026025	1.000988
534.387040	1.000377
534.747999	1.000684
535.108902	1.000958
535.469748	1.000892
535.830537	1.000426
536.191270	1.000748
536.551947	1.000714
536.912567	1.001384
537.273131	1.001627
537.633638	0.999798
537.994089	1.000684
538.354483	1.001012
538.714821	1.001004
539.075103	1.000594
539.435328	1.000840
539.795497	1.000468
540.155609	1.000525
540.515665	1.000782
540.875665	1.000675
541.235609	1.000838
541.595496	1.000397
541.955328	0.999959
542.315102	1.000475
542.674821	1.000666
543.034483	1.000219
543.394090	1.000354
543.753640	1.001235
544.113134	1.001246
544.472571	1.001835
544.831953	1.001045
545.191278	1.000859
545.550548	1.000643
545.909761	0.999962
546.268918	1.001158
546.628019	1.000524
546.987064	1.000374
547.346053	1.000912
547.704986	1.000873
548.063863	1.001025
548.422684	1.000721
548.781449	1.000768
549.140158	0.999886
549.498811	1.000373
549.857408	1.000861
550.215949	1.001129
550.574434	1.000077
550.932864	1.001051
551.291237	1.000767
551.649555	1.000514
552.007817	1.000535
552.366022	0.999954
552.724173	1.000503
553.082267	1.000976
553.440305	0.999890
553.798288	1.000190
554.156215	1.000296
554.514086	1.000760
554.871902	1.000472
555.229661	1.000421
555.587365	1.000258
555.945014	1.001150
556.302606	1.000143
556.660143	1.000805
557.017625	1.000380
557.375050	0.999750
557.732421	1.000312
558.089735	1.001016
558.446994	1.001320
558.804197	1.000812
559.161345	1.001389
559.518437	1.000663
559.875474	0.999713
560.232455	0.999907
560.589381	1.000663
560.946251	1.000177
561.303065	1.000321
561.659825	1.000836
562.016528	1.000243
562.373177	1.000838
562.729770	1.000539
563.086307	1.000328
563.442789	1.000102
563.799216	1.000477
564.155587	1.000297
564.511904	1.000122
564.868164	0.999591
565.224370	1.001009
565.580520	1.000679
565.936615	1.000243
566.292654	1.000128
566.648638	1.000171
567.004567	1.000051
567.360441	1.000993
567.716260	1.001375
568.072023	1.000152
568.427732	1.000227
568.783385	1.000286
569.138982	0.999924
569.494525	1.000261
569.850013	1.000511
570.205445	1.000273
570.560823	1.000482
570.916145	1.000012
571.271412	0.999834
571.626625	1.000118
571.981782	1.000061
572.336884	1.000608
572.691931	1.000994
573.046923	1.000318
573.401860	1.000912
573.756743	1.000246
574.111570	1.001119
574.466342	1.000770
574.821059	1.000812
575.175722	0.999723
575.530330	1.000823
575.884882	0.999812
576.239380	1.001469
576.593823	1.000260
576.948211	0.999890
577.302544	1.000019
577.656823	1.000985
578.011047	1.000676
578.365216	1.000815
578.719330	0.999849
579.073389	1.000572
579.427394	0.999998
579.781344	1.000108
580.135239	1.000095
580.489080	1.000558
580.842866	0.999990
581.196597	0.999974
581.550273	1.000212
581.903895	1.000258
582.257463	1.000246
582.610975	0.999954
582.964434	1.000194
583.317837	1.001581
583.671186	1.000790
584.024481	1.000251
584.377721	1.000716
584.730906	0.999937
585.084037	1.000609
585.437113	1.000778
585.790135	1.000331
586.143103	0.999828
586.496016	1.001302
586.848874	1.000144
587.201679	1.000559
587.554428	1.000483
587.907124	1.000321
588.259765	1.000122
588.612352	1.001173
588.964884	1.000947
589.317362	1.000538
589.669786	1.000122
590.022155	1.000668
590.374470	1.000077
590.726731	1.000329
591.078937	0.999054
591.431090	0.999636
591.783188	0.999963
592.135232	1.000301
592.487222	1.000108
592.839157	0.999675
593.191038	1.000818
593.542866	1.000235
593.894639	1.001038
594.246358	0.999667
594.598022	1.000521
594.949633	1.000647
595.301190	0.999707
595.652692	0.999846
596.004141	1.001101
596.355535	0.999550
596.706876	1.000065
597.058162	1.000549
597.409395	1.000455
597.760573	1.000790
598.111698	0.999769
598.462768	0.999773
598.813785	1.000048
599.164748	1.001119
599.515657	0.999978
599.866511	0.999891
600.217312	0.999867
600.568060	1.000327
600.918753	1.000165
601.269392	1.000869
601.619978	1.000228
601.970510	1.000710
602.320988	1.000166
602.671412	0.999869
603.021783	1.000479
603.372100	1.001243
603.722363	1.000996
604.072572	1.000015
604.422728	0.999925
604.772830	1.000350
605.122878	1.000194
605.472872	1.000491
605.822813	1.000299
606.172701	1.000268
606.522534	1.000609
606.872314	1.000533
607.222041	1.000844
607.571714	1.001322
607.921333	0.999744
608.270899	1.000180
608.620411	1.000620
608.969870	1.000586
609.319276	1.000131
609.668627	1.000851
610.017926	0.999231
610.367171	1.000091
610.716362	0.999790
611.065500	1.000202
611.414585	1.000074
611.763616	1.000405
612.112594	1.000436
612.461518	1.000193
612.810389	1.000610
613.159207	1.000786
613.507971	0.999785
613.856682	1.000676
614.205340	1.000777
614.553945	0.999520
614.902496	1.000335
615.250994	1.000447
615.599439	1.000254
615.947830	1.000651
616.296169	1.000181
616.644454	1.000246
616.992686	1.000781
617.340864	1.000025
617.688990	0.999796
618.037063	1.000188
618.385082	1.000177
618.733048	1.000062
619.080961	1.000613
619.428821	1.001109
619.776628	0.999900
620.124382	1.000019
620.472083	0.999487
620.819731	1.000128
621.167326	1.000951
621.514868	1.000162
621.862357	0.999778
622.209793	1.000758
622.557176	0.998895
622.904506	0.999884
623.251783	0.999375
623.599007	1.000563
623.946179	1.000019
624.293297	0.999855
624.640363	1.000021
624.987376	0.998811
625.334336	1.000772
625.681243	1.000273
626.028097	1.001113
626.374899	1.000621
626.721647	1.000296
627.068343	1.000794
627.414987	1.000472
627.761577	1.000405
628.108115	1.000372
628.454600	0.999922
628.801032	0.999776
629.147412	1.000040
629.493739	1.000022
629.840014	1.000010
630.186236	1.000456
630.532405	0.999918
630.878521	0.999660
631.224585	1.000204
631.570597	1.000444
631.916556	0.999274
632.262462	0.999897
632.608316	0.999617
632.954117	0.999715
633.299866	0.999674
633.645562	1.000262
633.991206	1.000768
634.336797	1.000721
634.682336	1.000194
635.027823	1.000088
635.373257	1.000681
635.718639	1.000416
636.063968	0.999974
636.409245	0.999320
636.754470	1.000052
637.099642	1.001271
637.444762	1.000205
637.789829	0.999150
638.134845	0.999913
638.479808	1.000288
638.824719	1.000413
639.169577	0.999974
639.514383	1.000364
639.859137	0.999367
640.203839	1.000369
640.548489	0.999519
640.893086	0.999672
641.237632	1.000764
641.582125	1.000017
641.926566	1.000035
642.270955	1.000224
642.615292	1.000108
642.959576	0.999774
643.303809	0.998930
643.647990	0.999996
643.992118	0.999685
644.336195	1.000559
644.680219	0.999861
645.024192	1.000445
645.368112	0.999222
645.711981	1.000145
646.055797	0.999871
646.399562	0.999725
646.743274	0.998960
647.086935	0.999913
647.430544	0.999685
647.774101	0.999872
648.117606	0.999166
648.461059	0.999684
648.804460	0.999640
649.147810	0.999532
649.491108	1.000604
649.834354	0.999639
650.177548	1.000449
650.520690	0.999939
650.863781	0.999914
651.206820	1.000646
651.549807	1.000075
651.892742	1.000255
652.235626	0.999826
652.578458	1.000053
652.921238	1.000170
653.263967	1.000190
653.606644	1.000862
653.949269	0.999657
654.291843	0.999600
654.634365	0.999345
654.976836	0.999191
655.319255	1.000442
655.661622	1.000110
656.003938	0.999577
656.346203	1.000454
656.688416	1.000244
657.030577	1.000525
657.372687	0.998492
657.714746	0.999891
658.056753	1.000492
658.398708	0.999619
658.740612	1.000353
659.082465	0.999726
659.424266	1.000152
659.766016	0.998723
660.107715	0.998996
660.449362	0.999137
660.790958	1.000349
661.132503	0.998789
661.473996	0.999613
661.815438	0.999856
662.156829	0.999181
662.498168	1.000232
662.839456	0.998871
663.180693	0.999043
663.521879	0.999331
663.863013	1.000547
664.204097	0.999622
664.545129	1.000079
664.886110	0.999295
665.227040	0.999568
665.567918	0.999135
665.908746	0.999368
666.249522	0.998646
666.590248	0.999919
666.930922	1.000325
667.271545	0.998979
667.612118	0.999360
667.952639	0.999499
668.293109	0.998584
668.633528	0.999446
668.973896	0.999449
669.314213	0.998563
669.654480	0.999295
669.994695	0.999509
670.334859	0.999308
670.674973	0.998560
671.015035	0.999785
671.355047	0.998491
671.695008	0.999016
672.034918	0.998591
672.374777	0.998994
672.714585	0.998816
673.054342	0.998749
673.394049	0.998600
673.733705	0.997423
674.073310	0.998486
674.412864	0.998758
674.752368	0.997552
675.091820	0.998876
675.431223	0.997841
675.770574	0.998109
676.109875	0.998370
676.449125	0.999023
676.788324	0.997363
677.127473	0.998771
677.466571	0.997808
677.805619	0.998833
678.144616	0.998284
678.483562	0.998316
678.822458	0.998617
679.161303	0.999261
679.500098	0.998482
679.838842	0.998918
680.177535	0.998222
680.516179	0.997813
680.854771	0.997864
681.193314	0.998169
681.531805	0.997904
681.870247	0.997113
682.208638	0.996365
682.546978	0.997182
682.885268	0.997018
683.223508	0.996872
683.561697	0.996086
683.899836	0.996977
684.237925	0.997219
684.575963	0.995881
684.913951	0.997123
685.251889	0.996177
685.589776	0.996118
685.927614	0.996100
686.265401	0.996157
686.603137	0.996076
686.940824	0.995656
687.278460	0.995391
687.616046	0.994490
687.953582	0.995240
688.291068	0.995057
688.628504	0.995225
