Dividing Wavelength (nm)	Counts (n)	Blue Motor Position (mm): 0.000000	Red Motor Position (mm): 49.100000	
326.493990	1.001188
326.888308	1.001188
327.282561	1.001188
327.676750	1.000404
328.070874	1.000137
328.464933	1.000491
328.858929	1.000143
329.252859	1.000398
329.646726	0.999982
330.040528	1.001465
330.434265	0.999258
330.827938	1.000722
331.221547	1.000498
331.615091	1.001013
332.008571	1.000085
332.401986	0.999655
332.795338	1.000554
333.188625	0.998157
333.581847	1.000725
333.975006	0.999481
334.368100	0.999698
334.761129	1.000328
335.154095	1.001200
335.546996	0.999212
335.939833	1.000095
336.332606	0.999415
336.725315	1.001064
337.117960	1.001313
337.510540	0.999648
337.903056	1.001031
338.295508	0.998433
338.687896	1.001221
339.080220	1.000019
339.472480	1.000533
339.864676	1.000782
340.256807	1.000798
340.648875	1.000955
341.040879	1.000396
341.432818	0.999876
341.824694	1.000972
342.216506	1.002086
342.608253	0.999566
342.999937	0.999702
343.391557	1.001017
343.783113	0.998966
344.174605	1.000753
344.566033	1.001067
344.957397	0.999559
345.348697	1.000728
345.739934	1.000905
346.131106	0.999345
346.522215	0.999968
346.913260	0.999564
347.304241	0.999944
347.695159	1.000075
348.086012	0.999246
348.476802	1.001030
348.867528	0.999803
349.258191	0.999463
349.648789	1.000648
350.039324	1.000176
350.429796	1.000548
350.820203	1.000739
351.210548	1.000281
351.600828	0.998896
351.991045	0.999918
352.381198	0.998969
352.771288	1.000038
353.161314	0.998829
353.551276	1.000347
353.941175	0.999642
354.331010	1.000528
354.720782	1.000763
355.110490	1.000852
355.500135	1.001440
355.889717	0.999068
356.279235	0.999846
356.668689	1.000473
357.058080	1.000286
357.447408	1.000286
357.836672	1.000916
358.225873	1.001156
358.615010	1.000783
359.004084	1.001312
359.393095	1.000318
359.782043	0.999059
360.170927	1.001011
360.559748	1.000345
360.948505	1.001031
361.337199	1.000427
361.725830	1.000229
362.114398	0.999261
362.502903	1.001223
362.891344	1.001281
363.279722	0.999976
363.668037	1.000993
364.056289	1.001332
364.444478	1.000953
364.832603	1.000582
365.220665	1.000772
365.608665	1.000887
365.996601	1.000064
366.384474	1.000396
366.772284	0.999587
367.160031	0.999762
367.547715	0.998600
367.935336	1.000142
368.322893	1.000397
368.710388	0.999822
369.097820	1.000369
369.485189	1.000458
369.872495	1.000087
370.259738	0.999849
370.646918	1.001042
371.034035	1.000657
371.421090	1.001138
371.808081	0.999550
372.195010	1.000416
372.581875	1.000015
372.968678	0.998835
373.355418	0.999824
373.742096	0.998616
374.128710	1.000692
374.515262	0.999024
374.901751	1.000021
375.288177	0.999543
375.674540	1.000168
376.060841	1.000008
376.447079	0.999661
376.833254	1.000842
377.219367	1.000411
377.605417	1.000632
377.991404	1.000486
378.377329	0.999701
378.763191	1.000248
379.148991	1.000167
379.534727	1.000388
379.920402	1.001509
380.306013	1.000001
380.691563	1.000896
381.077049	1.000036
381.462474	1.000271
381.847835	1.000720
382.233134	0.999038
382.618371	1.000657
383.003545	1.000386
383.388657	0.999846
383.773706	1.001007
384.158693	1.000496
384.543618	0.999817
384.928480	1.000553
385.313280	1.000641
385.698017	1.000118
386.082692	0.999797
386.467305	1.001006
386.851856	1.001105
387.236344	1.000183
387.620770	0.999588
388.005133	1.001268
388.389435	1.000732
388.773674	1.000741
389.157851	1.000872
389.541965	1.000998
389.926018	1.001155
390.310008	1.001046
390.693936	1.000138
391.077802	1.001050
391.461606	1.001020
391.845348	1.000816
392.229027	1.001990
392.612645	0.999943
392.996200	1.001876
393.379694	1.000559
393.763125	1.001994
394.146494	1.001365
394.529801	1.000680
394.913047	1.001338
395.296230	1.000805
395.679351	1.000334
396.062410	1.000293
396.445408	1.001085
396.828343	1.001410
397.211217	1.000939
397.594028	1.001325
397.976778	1.001772
398.359466	1.001435
398.742092	0.999811
399.124656	1.000366
399.507158	1.001087
399.889598	1.001345
400.271977	1.001222
400.654294	1.000910
401.036549	1.001713
401.418742	1.001746
401.800874	1.001223
402.182944	1.000380
402.564952	1.000383
402.946898	1.001322
403.328783	1.000710
403.710606	1.001163
404.092367	1.000973
404.474067	1.000902
404.855705	1.001018
405.237282	1.000756
405.618797	1.001139
406.000250	1.000395
406.381642	1.001714
406.762972	1.000970
407.144240	1.001599
407.525447	1.000193
407.906593	1.000674
408.287677	1.000924
408.668700	1.001296
409.049661	1.000813
409.430560	1.001421
409.811399	1.001357
410.192176	1.001426
410.572891	1.000515
410.953545	1.000866
411.334138	0.999626
411.714669	1.001489
412.095139	1.000809
412.475547	1.001040
412.855894	1.001161
413.236180	1.000867
413.616405	1.001145
413.996568	1.001952
414.376670	1.000952
414.756711	1.001006
415.136691	1.000101
415.516609	1.001085
415.896466	1.000499
416.276262	1.000298
416.655997	1.001273
417.035670	1.000513
417.415283	1.001402
417.794834	1.001114
418.174324	1.000934
418.553753	1.002002
418.933121	1.000264
419.312428	1.000387
419.691674	1.001388
420.070859	1.001146
420.449983	1.001386
420.829045	1.001370
421.208047	1.001345
421.586988	1.002135
421.965867	1.000645
422.344686	1.001906
422.723444	1.000989
423.102141	1.000748
423.480777	1.001579
423.859352	1.001196
424.237866	1.000743
424.616319	1.001086
424.994712	1.001773
425.373044	1.001382
425.751314	1.001867
426.129524	1.001197
426.507673	1.001564
426.885762	1.001531
427.263789	1.001283
427.641756	1.001915
428.019662	1.001486
428.397508	1.001076
428.775292	1.000078
429.153016	1.001305
429.530679	1.001786
429.908282	1.001725
430.285824	1.000904
430.663305	1.000746
431.040726	1.000819
431.418086	1.001975
431.795385	1.002419
432.172624	1.001063
432.549802	1.001477
432.926920	1.001673
433.303977	1.000759
433.680974	1.002014
434.057910	1.001754
434.434786	1.002125
434.811601	1.000386
435.188355	1.000881
435.565050	1.000565
435.941683	1.001384
436.318257	1.002088
436.694770	1.000530
437.071222	1.001036
437.447614	1.002180
437.823946	1.001260
438.200218	1.001213
438.576429	1.001847
438.952580	1.001903
439.328670	1.000894
439.704700	1.001291
440.080670	1.001050
440.456580	1.000355
440.832429	0.999775
441.208218	1.002368
441.583947	1.001338
441.959616	1.001525
442.335224	1.000986
442.710773	1.002090
443.086261	1.000851
443.461689	1.000619
443.837057	1.001239
444.212365	1.001418
444.587612	1.001598
444.962800	1.000897
445.337927	1.001114
445.712995	1.001779
446.088002	1.002423
446.462949	1.001326
446.837837	1.001867
447.212664	1.001716
447.587431	1.001412
447.962139	1.001111
448.336786	1.001746
448.711374	1.001453
449.085901	1.000471
449.460369	1.001319
449.834776	1.001000
450.209124	1.001564
450.583412	1.001795
450.957640	1.000823
451.331808	1.000716
451.705917	1.001564
452.079965	1.001056
452.453954	1.001168
452.827883	1.001269
453.201752	1.001879
453.575562	1.001473
453.949311	1.001545
454.323001	1.001269
454.696632	1.000254
455.070202	1.000961
455.443713	1.000330
455.817164	1.001676
456.190556	1.001587
456.563888	1.001500
456.937160	1.001441
457.310373	1.000566
457.683526	1.001445
458.056619	1.000922
458.429653	1.001708
458.802628	1.000605
459.175542	1.001116
459.548398	1.000762
459.921194	1.000501
460.293930	1.001050
460.666607	0.999885
461.039224	1.000167
461.411782	1.001096
461.784280	1.000970
462.156719	1.002037
462.529099	1.001999
462.901419	1.001058
463.273680	1.001419
463.645882	1.001112
464.018024	1.001001
464.390106	1.001532
464.762130	1.001636
465.134094	1.001261
465.505999	1.001369
465.877845	1.000560
466.249631	1.001226
466.621358	1.001715
466.993026	1.001819
467.364634	1.001531
467.736184	1.001532
468.107674	1.001534
468.479105	1.001709
468.850477	1.002287
469.221790	1.001831
469.593043	1.001716
469.964238	1.002458
470.335373	1.001199
470.706449	1.001519
471.077467	1.002035
471.448425	1.001292
471.819324	1.002443
472.190164	1.000787
472.560945	1.001396
472.931667	1.001623
473.302330	1.000936
473.672934	1.002387
474.043479	1.001923
474.413965	1.001353
474.784393	1.001927
475.154761	1.001753
475.525070	1.000635
475.895321	1.001570
476.265513	1.000997
476.635645	1.001779
477.005719	1.001022
477.375734	1.001061
477.745691	1.001091
478.115588	1.001639
478.485427	1.001996
478.855207	1.000932
479.224928	1.002296
479.594591	1.001719
479.964194	1.001623
480.333739	1.001412
480.703226	1.001500
481.072653	1.002280
481.442022	1.001874
481.811333	1.000992
482.180584	1.001889
482.549777	1.001590
482.918912	1.001447
483.287988	1.001570
483.657005	1.001280
484.025964	1.001796
484.394864	1.002251
484.763706	1.001421
485.132489	1.002148
485.501213	1.001175
485.869879	1.001170
486.238487	1.001718
486.607036	1.001846
486.975527	1.000839
487.343959	1.001412
487.712333	1.001761
488.080648	1.001480
488.448905	1.001403
488.817104	1.001951
489.185244	1.001325
489.553326	1.002164
489.921350	1.001340
490.289315	1.001697
490.657222	1.001688
491.025070	1.001461
491.392861	1.002011
491.760593	1.002013
492.128267	1.001801
492.495883	1.001352
492.863440	1.001676
493.230939	1.002002
493.598380	1.001747
493.965763	1.001670
494.333088	1.002330
494.700354	1.001247
495.067563	1.001434
495.434713	1.001447
495.801805	1.002073
496.168839	1.001416
496.535815	1.001396
496.902733	1.001624
497.269593	1.001170
497.636395	1.001702
498.003139	1.001597
498.369825	1.002334
498.736453	1.001346
499.103023	1.001910
499.469535	1.000972
499.835989	1.001709
500.202385	1.001859
500.568723	1.001164
500.935003	1.001812
501.301226	1.002123
501.667390	1.001587
502.033497	1.001624
502.399546	1.001950
502.765537	1.001447
503.131470	1.001387
503.497345	1.001608
503.863163	1.002459
504.228923	1.001827
504.594625	1.001957
504.960269	1.002241
505.325856	1.002149
505.691385	1.001464
506.056856	1.001418
506.422270	1.001421
506.787625	1.001723
507.152924	1.001752
507.518164	1.000503
507.883347	1.000665
508.248472	1.000840
508.613540	1.001690
508.978550	1.001659
509.343503	1.001615
509.708398	1.001481
510.073236	1.002038
510.438016	1.002228
510.802738	1.001892
511.167403	1.001826
511.532010	1.002110
511.896561	1.001282
512.261053	1.002433
512.625488	1.001688
512.989866	1.001784
513.354186	1.001457
513.718449	1.001907
514.082655	1.001615
514.446803	1.001620
514.810894	1.002087
515.174927	1.001649
515.538904	1.001509
515.902822	1.001490
516.266684	1.002078
516.630488	1.002390
516.994235	1.001022
517.357925	1.001858
517.721558	1.001910
518.085133	1.001091
518.448651	1.002608
518.812112	1.001975
519.175516	1.001338
519.538863	1.002347
519.902152	1.001635
520.265385	1.001312
520.628560	1.001833
520.991678	1.001987
521.354739	1.002230
521.717743	1.001936
522.080690	1.001795
522.443580	1.001601
522.806413	1.001585
523.169189	1.001011
523.531908	1.001346
523.894569	1.001451
524.257174	1.001740
524.619722	1.001680
524.982213	1.001480
525.344647	1.002227
525.707025	1.001671
526.069345	1.001129
526.431608	1.001568
526.793815	1.002402
527.155964	1.001700
527.518057	1.002215
527.880093	1.001819
528.242072	1.001291
528.603995	1.002173
528.965860	1.002447
529.327669	1.001614
529.689421	1.001550
530.051117	1.002208
530.412755	1.002015
530.774337	1.002229
531.135862	1.001701
531.497331	1.001940
531.858743	1.001899
532.220098	1.002294
532.581396	1.001712
532.942638	1.002568
533.303824	1.001458
533.664953	1.001885
534.026025	1.001498
534.387040	1.001672
534.747999	1.001824
535.108902	1.001851
535.469748	1.001487
535.830537	1.001472
536.191270	1.001626
536.551947	1.002219
536.912567	1.002769
537.273131	1.002227
537.633638	1.001685
537.994089	1.001792
538.354483	1.002302
538.714821	1.002524
539.075103	1.001331
539.435328	1.001667
539.795497	1.001789
540.155609	1.002064
540.515665	1.001609
540.875665	1.002337
541.235609	1.002404
541.595496	1.001147
541.955328	1.001521
542.315102	1.001845
542.674821	1.001480
543.034483	1.001416
543.394090	1.001275
543.753640	1.001978
544.113134	1.001125
544.472571	1.002302
544.831953	1.002020
545.191278	1.001887
545.550548	1.001980
545.909761	1.001258
546.268918	1.001813
546.628019	1.001681
546.987064	1.001531
547.346053	1.001770
547.704986	1.002668
548.063863	1.001776
548.422684	1.002273
548.781449	1.002753
549.140158	1.001795
549.498811	1.001721
549.857408	1.002015
550.215949	1.002464
550.574434	1.001457
550.932864	1.001803
551.291237	1.001862
551.649555	1.001688
552.007817	1.001662
552.366022	1.001625
552.724173	1.001879
553.082267	1.002283
553.440305	1.001730
553.798288	1.001899
554.156215	1.001556
554.514086	1.001755
554.871902	1.001717
555.229661	1.001615
555.587365	1.001837
555.945014	1.002540
556.302606	1.001596
556.660143	1.001499
557.017625	1.001791
557.375050	1.001369
557.732421	1.001826
558.089735	1.002297
558.446994	1.002203
558.804197	1.001747
559.161345	1.002255
559.518437	1.002536
559.875474	1.001670
560.232455	1.001872
560.589381	1.002624
560.946251	1.000840
561.303065	1.001623
561.659825	1.002375
562.016528	1.001805
562.373177	1.002239
562.729770	1.001346
563.086307	1.001975
563.442789	1.001932
563.799216	1.002126
564.155587	1.000986
564.511904	1.001758
564.868164	1.001546
565.224370	1.001917
565.580520	1.002076
565.936615	1.001158
566.292654	1.001673
566.648638	1.001311
567.004567	1.001114
567.360441	1.002376
567.716260	1.002174
568.072023	1.001320
568.427732	1.001301
568.783385	1.001955
569.138982	1.001853
569.494525	1.001527
569.850013	1.001580
570.205445	1.001627
570.560823	1.001899
570.916145	1.001164
571.271412	1.001791
571.626625	1.001362
571.981782	1.001753
572.336884	1.001892
572.691931	1.001260
573.046923	1.001685
573.401860	1.002298
573.756743	1.001512
574.111570	1.002183
574.466342	1.002146
574.821059	1.002321
575.175722	1.001633
575.530330	1.001771
575.884882	1.001569
576.239380	1.002576
576.593823	1.001527
576.948211	1.001347
577.302544	1.000835
577.656823	1.001920
578.011047	1.002427
578.365216	1.001090
578.719330	1.001120
579.073389	1.001788
579.427394	1.001171
579.781344	1.001557
580.135239	1.001483
580.489080	1.001039
580.842866	1.001751
581.196597	1.001401
581.550273	1.001275
581.903895	1.001654
582.257463	1.001845
582.610975	1.001287
582.964434	1.001262
583.317837	1.002475
583.671186	1.001186
584.024481	1.001342
584.377721	1.001350
584.730906	1.001114
585.084037	1.001304
585.437113	1.001645
585.790135	1.001881
586.143103	1.001066
586.496016	1.002619
586.848874	1.001744
587.201679	1.001892
587.554428	1.001427
587.907124	1.001483
588.259765	1.001512
588.612352	1.001649
588.964884	1.001646
589.317362	1.001639
589.669786	1.001357
590.022155	1.001728
590.374470	1.001160
590.726731	1.001352
591.078937	1.000343
591.431090	1.001168
591.783188	1.001231
592.135232	1.001332
592.487222	1.001953
592.839157	1.001503
593.191038	1.001656
593.542866	1.001456
593.894639	1.002088
594.246358	1.001444
594.598022	1.000542
594.949633	1.001651
595.301190	1.001456
595.652692	1.001648
596.004141	1.002048
596.355535	1.002375
596.706876	1.001346
597.058162	1.001523
597.409395	1.001450
597.760573	1.001331
598.111698	1.001368
598.462768	1.001009
598.813785	1.001111
599.164748	1.001953
599.515657	1.000991
599.866511	1.001445
600.217312	1.001064
600.568060	1.001519
600.918753	1.001931
601.269392	1.001725
601.619978	1.001343
601.970510	1.001130
602.320988	1.001138
602.671412	1.001487
603.021783	1.001275
603.372100	1.001938
603.722363	1.001606
604.072572	1.000893
604.422728	1.001822
604.772830	1.000797
605.122878	1.000996
605.472872	1.001384
605.822813	1.001065
606.172701	1.001529
606.522534	1.001794
606.872314	1.000815
607.222041	1.001267
607.571714	1.002044
607.921333	1.001052
608.270899	1.000780
608.620411	1.001459
608.969870	1.001762
609.319276	1.001020
609.668627	1.001722
610.017926	1.000398
610.367171	1.001282
610.716362	1.000247
611.065500	1.000850
611.414585	1.001041
611.763616	1.002155
612.112594	1.000452
612.461518	1.000905
612.810389	1.001477
613.159207	1.001763
613.507971	1.001515
613.856682	1.001326
614.205340	1.001675
614.553945	1.000671
614.902496	1.002099
615.250994	1.002307
615.599439	1.002005
615.947830	1.001091
616.296169	1.001384
616.644454	1.000803
616.992686	1.001314
617.340864	1.001355
617.688990	1.001513
618.037063	1.000769
618.385082	1.001506
618.733048	1.000706
619.080961	1.000934
619.428821	1.001706
619.776628	1.001501
620.124382	1.000611
620.472083	1.000350
620.819731	1.001611
621.167326	1.001289
621.514868	1.001466
621.862357	1.001636
622.209793	1.001789
622.557176	0.999858
622.904506	1.001760
623.251783	1.000999
623.599007	1.001369
623.946179	1.001440
624.293297	1.000924
624.640363	1.001260
624.987376	1.000967
625.334336	1.001086
625.681243	1.001377
626.028097	1.002151
626.374899	1.001938
626.721647	1.001697
627.068343	1.002185
627.414987	1.001499
627.761577	1.001570
628.108115	1.001003
628.454600	1.000831
628.801032	1.001266
629.147412	1.001353
629.493739	1.000458
629.840014	1.001397
630.186236	1.001277
630.532405	1.000751
630.878521	1.001053
631.224585	1.000644
631.570597	1.000917
631.916556	1.001637
632.262462	1.001400
632.608316	1.001137
632.954117	1.001181
633.299866	1.001062
633.645562	1.000999
633.991206	1.001434
634.336797	1.001550
634.682336	1.001104
635.027823	1.001592
635.373257	1.001618
635.718639	1.001502
636.063968	1.000914
636.409245	1.000996
636.754470	1.001912
637.099642	1.001258
637.444762	1.001520
637.789829	1.000964
638.134845	1.000197
638.479808	1.001466
638.824719	1.000383
639.169577	1.000709
639.514383	1.000681
639.859137	1.002115
640.203839	1.001326
640.548489	1.000982
640.893086	1.000887
641.237632	1.001570
641.582125	1.000567
641.926566	1.000230
642.270955	1.001225
642.615292	1.001022
642.959576	1.001502
643.303809	1.001592
643.647990	0.999787
643.992118	1.001019
644.336195	1.001768
644.680219	1.001684
645.024192	1.001626
645.368112	1.000946
645.711981	1.001087
646.055797	1.001644
646.399562	1.000290
646.743274	0.999857
647.086935	1.000808
647.430544	1.000095
647.774101	1.001286
648.117606	1.000678
648.461059	1.000422
648.804460	1.000473
649.147810	1.001394
649.491108	1.000839
649.834354	1.000700
650.177548	1.000955
650.520690	1.001564
650.863781	1.000603
651.206820	1.001310
651.549807	1.001235
651.892742	1.001541
652.235626	1.001243
652.578458	1.001106
652.921238	1.000782
653.263967	1.001463
653.606644	1.001022
653.949269	1.001342
654.291843	1.001004
654.634365	1.000951
654.976836	1.001343
655.319255	1.000923
655.661622	1.001202
656.003938	1.000666
656.346203	1.000427
656.688416	1.001167
657.030577	1.001803
657.372687	1.000721
657.714746	1.000766
658.056753	1.000506
658.398708	1.000916
658.740612	1.000860
659.082465	1.000496
659.424266	1.001341
659.766016	0.999927
660.107715	1.000496
660.449362	1.001280
660.790958	1.000813
661.132503	0.999807
661.473996	1.000803
661.815438	1.000199
662.156829	1.000251
662.498168	1.001114
662.839456	1.000381
663.180693	1.001781
663.521879	1.000909
663.863013	1.001183
664.204097	1.001488
664.545129	1.001135
664.886110	0.999986
665.227040	1.000623
665.567918	1.000872
665.908746	1.001719
666.249522	0.999626
666.590248	1.000512
666.930922	1.001314
667.271545	1.000500
667.612118	1.000909
667.952639	1.000327
668.293109	1.000690
668.633528	1.001156
668.973896	1.000707
669.314213	1.000130
669.654480	1.000910
669.994695	1.000369
670.334859	1.000391
670.674973	0.999685
671.015035	1.001040
671.355047	1.000498
671.695008	1.001334
672.034918	1.000387
672.374777	1.000734
672.714585	1.000227
673.054342	1.000931
673.394049	1.000117
673.733705	1.000016
674.073310	1.000709
674.412864	0.999913
674.752368	1.000110
675.091820	1.001200
675.431223	1.000567
675.770574	1.000702
676.109875	1.000263
676.449125	1.000093
676.788324	1.000794
677.127473	1.001490
677.466571	0.999522
677.805619	0.999762
678.144616	1.000172
678.483562	1.000189
678.822458	1.000441
679.161303	1.001943
679.500098	1.000269
679.838842	1.001063
680.177535	1.001165
680.516179	1.000701
680.854771	1.001289
681.193314	1.000590
681.531805	1.000280
681.870247	0.999671
682.208638	1.000019
682.546978	0.999779
682.885268	1.000591
683.223508	1.000445
683.561697	0.999852
683.899836	1.001114
684.237925	1.000248
684.575963	1.000741
684.913951	0.999978
685.251889	1.000666
685.589776	1.000452
685.927614	1.001066
686.265401	1.000441
686.603137	1.000806
686.940824	1.000037
687.278460	1.000929
687.616046	1.000460
687.953582	0.999666
688.291068	1.000215
688.628504	1.001856
