Dividing Wavelength (nm)	Counts (n)	Blue Motor Position (mm): 0.000000	Red Motor Position (mm): 43.800000	
326.493990	1.001561
326.888308	1.001561
327.282561	1.001561
327.676750	1.001031
328.070874	0.999596
328.464933	1.000557
328.858929	0.999374
329.252859	0.999550
329.646726	1.000255
330.040528	1.000202
330.434265	1.001401
330.827938	1.000853
331.221547	1.000369
331.615091	1.000320
332.008571	1.000206
332.401986	1.000344
332.795338	1.000593
333.188625	1.000338
333.581847	1.001271
333.975006	0.999045
334.368100	0.999732
334.761129	1.001179
335.154095	1.002209
335.546996	0.999375
335.939833	0.998152
336.332606	0.998030
336.725315	0.999504
337.117960	1.001142
337.510540	0.998289
337.903056	0.999818
338.295508	0.998663
338.687896	1.000588
339.080220	0.998646
339.472480	0.998951
339.864676	0.998662
340.256807	0.999834
340.648875	0.999002
341.040879	1.000115
341.432818	0.998578
341.824694	0.998510
342.216506	1.000448
342.608253	0.998740
342.999937	0.999617
343.391557	0.998014
343.783113	0.999166
344.174605	0.999655
344.566033	0.999451
344.957397	0.997556
345.348697	0.999815
345.739934	0.999031
346.131106	0.998903
346.522215	0.997473
346.913260	0.999616
347.304241	0.998865
347.695159	0.997403
348.086012	0.998502
348.476802	0.999810
348.867528	0.999939
349.258191	0.998614
349.648789	1.000733
350.039324	0.999594
350.429796	0.999939
350.820203	0.999566
351.210548	0.998827
351.600828	0.999789
351.991045	0.998859
352.381198	0.999332
352.771288	0.999080
353.161314	0.998813
353.551276	0.999354
353.941175	0.998634
354.331010	0.999361
354.720782	0.999918
355.110490	0.998545
355.500135	0.999846
355.889717	0.999142
356.279235	0.999369
356.668689	0.998860
357.058080	0.999767
357.447408	1.000559
357.836672	1.000255
358.225873	1.000912
358.615010	0.999416
359.004084	0.999788
359.393095	0.999812
359.782043	0.999293
360.170927	1.000258
360.559748	0.999791
360.948505	0.997946
361.337199	0.998425
361.725830	0.999685
362.114398	0.999462
362.502903	0.999898
362.891344	0.999019
363.279722	0.998191
363.668037	0.998871
364.056289	0.999117
364.444478	1.000657
364.832603	0.999452
365.220665	0.998299
365.608665	0.999168
365.996601	0.998930
366.384474	0.999450
366.772284	0.999126
367.160031	0.997773
367.547715	0.998952
367.935336	0.998564
368.322893	0.999403
368.710388	0.998562
369.097820	0.998359
369.485189	0.999480
369.872495	0.998063
370.259738	0.997709
370.646918	1.000385
371.034035	0.999844
371.421090	0.998911
371.808081	0.999467
372.195010	1.000043
372.581875	0.999390
372.968678	0.998854
373.355418	0.999622
373.742096	0.998971
374.128710	1.000093
374.515262	0.998950
374.901751	0.998784
375.288177	0.999369
375.674540	1.000430
376.060841	0.999048
376.447079	0.999073
376.833254	0.998799
377.219367	0.997841
377.605417	0.999826
377.991404	1.000325
378.377329	0.998282
378.763191	0.999269
379.148991	0.999386
379.534727	1.000056
379.920402	0.999678
380.306013	0.999191
380.691563	1.000468
381.077049	0.998197
381.462474	0.999416
381.847835	0.999396
382.233134	0.998354
382.618371	1.000565
383.003545	0.999436
383.388657	0.998634
383.773706	1.000660
384.158693	0.999477
384.543618	0.999879
384.928480	1.000671
385.313280	1.000031
385.698017	0.999312
386.082692	1.000374
386.467305	1.000375
386.851856	0.999960
387.236344	0.999346
387.620770	0.998484
388.005133	0.999913
388.389435	1.000611
388.773674	0.998898
389.157851	0.999488
389.541965	1.000721
389.926018	0.998862
390.310008	1.000883
390.693936	1.000263
391.077802	0.999987
391.461606	0.999877
391.845348	0.999804
392.229027	1.001192
392.612645	0.999932
392.996200	1.000823
393.379694	0.999363
393.763125	1.000685
394.146494	1.000262
394.529801	0.999913
394.913047	1.000010
395.296230	1.000144
395.679351	1.000157
396.062410	0.999599
396.445408	0.999936
396.828343	0.999667
397.211217	0.999597
397.594028	1.000652
397.976778	0.999479
398.359466	0.999263
398.742092	0.999312
399.124656	0.999505
399.507158	0.999650
399.889598	1.000049
400.271977	1.000431
400.654294	1.000117
401.036549	0.999850
401.418742	1.000539
401.800874	0.998949
402.182944	1.000247
402.564952	0.999361
402.946898	1.000376
403.328783	1.000513
403.710606	1.000700
404.092367	1.000233
404.474067	1.000531
404.855705	0.999791
405.237282	1.000153
405.618797	0.999392
406.000250	0.999232
406.381642	0.999645
406.762972	0.999970
407.144240	1.000598
407.525447	1.000891
407.906593	1.000516
408.287677	0.999759
408.668700	1.001069
409.049661	0.999299
409.430560	0.999949
409.811399	0.999523
410.192176	0.999998
410.572891	1.000390
410.953545	1.000138
411.334138	0.999299
411.714669	0.999969
412.095139	1.000117
412.475547	1.000719
412.855894	1.000362
413.236180	1.000272
413.616405	1.000111
413.996568	1.000865
414.376670	0.999510
414.756711	1.000239
415.136691	1.000223
415.516609	0.999735
415.896466	0.999697
416.276262	0.998598
416.655997	1.001092
417.035670	1.000038
417.415283	1.000480
417.794834	0.999635
418.174324	1.001202
418.553753	1.000326
418.933121	1.000141
419.312428	0.999948
419.691674	0.999944
420.070859	1.000571
420.449983	1.000622
420.829045	1.000178
421.208047	1.000802
421.586988	1.001127
421.965867	1.000690
422.344686	1.000663
422.723444	1.000845
423.102141	1.000296
423.480777	1.000837
423.859352	1.000398
424.237866	0.999678
424.616319	0.999636
424.994712	1.001196
425.373044	1.001600
425.751314	1.000282
426.129524	1.000122
426.507673	1.000351
426.885762	1.001104
427.263789	1.000809
427.641756	1.000336
428.019662	1.001000
428.397508	1.000319
428.775292	1.000429
429.153016	0.999930
429.530679	1.000937
429.908282	1.001439
430.285824	1.000003
430.663305	1.000256
431.040726	1.000154
431.418086	1.001542
431.795385	1.000663
432.172624	0.999457
432.549802	1.000517
432.926920	1.000481
433.303977	1.000065
433.680974	1.000568
434.057910	1.000135
434.434786	1.000383
434.811601	1.000086
435.188355	1.000462
435.565050	0.999288
435.941683	0.999839
436.318257	1.001372
436.694770	0.999916
437.071222	1.000163
437.447614	1.000109
437.823946	1.000481
438.200218	1.000026
438.576429	1.000862
438.952580	1.001437
439.328670	0.999825
439.704700	1.000487
440.080670	1.001295
440.456580	1.000276
440.832429	1.000558
441.208218	1.000939
441.583947	1.000962
441.959616	1.000442
442.335224	1.000370
442.710773	1.000904
443.086261	1.000429
443.461689	1.000596
443.837057	1.000198
444.212365	1.000649
444.587612	1.000190
444.962800	1.000331
445.337927	1.000873
445.712995	1.001115
446.088002	1.001156
446.462949	1.000489
446.837837	1.000341
447.212664	1.001035
447.587431	1.001133
447.962139	1.000487
448.336786	1.001193
448.711374	1.000991
449.085901	1.000668
449.460369	1.001404
449.834776	1.001136
450.209124	1.000830
450.583412	1.000780
450.957640	1.001033
451.331808	1.000709
451.705917	1.000255
452.079965	0.999747
452.453954	1.000374
452.827883	1.000404
453.201752	1.000679
453.575562	1.001619
453.949311	1.000511
454.323001	1.000752
454.696632	1.000533
455.070202	1.000674
455.443713	0.999612
455.817164	1.000900
456.190556	1.000799
456.563888	1.000937
456.937160	1.000273
457.310373	1.000756
457.683526	0.999823
458.056619	1.000445
458.429653	1.001252
458.802628	1.000830
459.175542	1.000044
459.548398	1.000764
459.921194	1.000915
460.293930	1.000721
460.666607	1.000545
461.039224	0.999967
461.411782	1.000884
461.784280	1.000394
462.156719	1.001017
462.529099	1.000321
462.901419	1.000529
463.273680	1.000433
463.645882	1.000711
464.018024	1.001291
464.390106	1.000553
464.762130	1.001507
465.134094	1.000648
465.505999	1.001077
465.877845	1.000874
466.249631	1.001187
466.621358	1.001186
466.993026	1.000868
467.364634	1.000661
467.736184	1.001040
468.107674	1.000985
468.479105	1.000196
468.850477	1.001087
469.221790	1.001018
469.593043	1.000866
469.964238	1.001661
470.335373	1.000561
470.706449	1.000522
471.077467	1.001271
471.448425	1.001178
471.819324	1.001498
472.190164	1.000295
472.560945	1.001068
472.931667	1.000609
473.302330	1.000032
473.672934	1.000886
474.043479	1.001351
474.413965	1.001007
474.784393	1.000993
475.154761	1.000366
475.525070	1.000306
475.895321	1.001239
476.265513	1.000989
476.635645	1.000474
477.005719	1.001421
477.375734	1.000799
477.745691	1.001291
478.115588	1.000846
478.485427	1.001013
478.855207	1.001577
479.224928	1.001225
479.594591	1.001029
479.964194	1.001002
480.333739	1.000715
480.703226	1.000401
481.072653	1.001888
481.442022	1.001160
481.811333	1.001089
482.180584	1.001348
482.549777	1.000923
482.918912	1.001389
483.287988	1.001489
483.657005	1.000749
484.025964	1.001345
484.394864	1.002049
484.763706	1.001178
485.132489	1.001307
485.501213	1.000860
485.869879	1.000842
486.238487	1.001175
486.607036	1.001252
486.975527	1.000053
487.343959	1.000730
487.712333	1.000819
488.080648	1.000884
488.448905	1.001063
488.817104	1.001699
489.185244	1.001193
489.553326	1.000995
489.921350	1.001057
490.289315	1.001652
490.657222	1.001402
491.025070	1.001794
491.392861	1.001313
491.760593	1.001589
492.128267	1.000653
492.495883	1.001485
492.863440	1.001506
493.230939	1.001011
493.598380	1.000942
493.965763	1.001057
494.333088	1.001393
494.700354	1.000948
495.067563	1.001020
495.434713	1.000318
495.801805	1.001666
496.168839	1.000645
496.535815	1.000776
496.902733	1.000923
497.269593	1.000967
497.636395	1.001170
498.003139	1.000780
498.369825	1.001933
498.736453	1.000760
499.103023	0.999964
499.469535	1.000522
499.835989	1.000619
500.202385	1.000757
500.568723	1.001251
500.935003	1.001084
501.301226	1.000843
501.667390	1.000719
502.033497	1.000680
502.399546	1.001196
502.765537	1.000334
503.131470	1.000952
503.497345	1.001083
503.863163	1.001793
504.228923	1.000999
504.594625	1.001245
504.960269	1.001776
505.325856	1.001234
505.691385	1.000778
506.056856	1.000768
506.422270	1.000753
506.787625	1.001444
507.152924	1.001192
507.518164	1.000662
507.883347	1.001143
508.248472	1.000861
508.613540	1.000720
508.978550	1.001442
509.343503	1.001260
509.708398	1.001175
510.073236	1.001232
510.438016	1.001313
510.802738	1.001125
511.167403	1.000741
511.532010	1.000988
511.896561	1.000407
512.261053	1.001565
512.625488	1.001275
512.989866	1.000853
513.354186	1.001208
513.718449	1.001186
514.082655	1.000983
514.446803	1.000620
514.810894	1.001128
515.174927	1.000901
515.538904	1.001169
515.902822	1.001039
516.266684	1.001334
516.630488	1.001878
516.994235	1.000325
517.357925	1.001203
517.721558	1.001208
518.085133	1.000816
518.448651	1.001342
518.812112	1.001275
519.175516	1.000841
519.538863	1.001784
519.902152	1.000205
520.265385	1.001543
520.628560	1.000282
520.991678	1.001635
521.354739	1.001053
521.717743	1.000857
522.080690	1.001245
522.443580	1.001142
522.806413	1.000826
523.169189	1.000412
523.531908	1.000272
523.894569	1.000886
524.257174	1.000874
524.619722	1.001369
524.982213	1.001207
525.344647	1.001214
525.707025	1.000184
526.069345	1.000218
526.431608	1.000749
526.793815	1.000926
527.155964	1.000701
527.518057	1.001359
527.880093	1.001064
528.242072	1.000308
528.603995	1.000518
528.965860	1.001072
529.327669	1.000828
529.689421	1.000996
530.051117	1.001692
530.412755	1.000552
530.774337	1.001347
531.135862	1.000970
531.497331	1.000555
531.858743	1.000708
532.220098	1.001267
532.581396	1.000813
532.942638	1.001196
533.303824	1.001284
533.664953	1.000588
534.026025	1.000969
534.387040	1.000623
534.747999	1.000426
535.108902	1.000624
535.469748	1.000235
535.830537	1.000790
536.191270	0.999899
536.551947	1.000217
536.912567	1.000276
537.273131	1.001158
537.633638	1.000044
537.994089	1.000300
538.354483	1.000578
538.714821	1.000413
539.075103	1.000117
539.435328	1.000629
539.795497	1.000606
540.155609	0.999202
540.515665	1.000174
540.875665	1.000600
541.235609	0.999712
541.595496	1.000481
541.955328	0.999531
542.315102	1.000247
542.674821	1.000494
543.034483	0.999516
543.394090	1.000294
543.753640	1.001071
544.113134	1.000317
544.472571	1.000236
544.831953	1.000154
545.191278	0.999920
545.550548	1.000565
545.909761	0.999494
546.268918	1.000806
546.628019	1.000279
546.987064	0.999850
547.346053	0.999630
547.704986	1.000379
548.063863	0.999931
548.422684	0.999793
548.781449	1.000422
549.140158	0.999907
549.498811	0.999455
549.857408	0.999614
550.215949	1.000306
550.574434	0.999799
550.932864	1.000428
551.291237	1.000098
551.649555	0.999912
552.007817	0.999872
552.366022	0.999425
552.724173	1.000446
553.082267	0.999797
553.440305	0.999886
553.798288	0.999764
554.156215	0.999947
554.514086	0.999630
554.871902	0.999344
555.229661	0.999569
555.587365	0.999957
555.945014	1.000700
556.302606	0.999461
556.660143	1.000082
557.017625	0.999498
557.375050	1.000033
557.732421	0.999664
558.089735	0.999639
558.446994	1.000505
558.804197	1.000242
559.161345	1.000758
559.518437	1.000758
559.875474	0.999324
560.232455	0.999438
560.589381	1.000674
560.946251	0.999223
561.303065	1.000128
561.659825	1.000157
562.016528	0.999530
562.373177	1.000108
562.729770	0.999700
563.086307	0.999681
563.442789	0.999896
563.799216	1.000194
564.155587	0.999661
564.511904	0.999238
564.868164	0.999806
565.224370	0.999824
565.580520	1.000077
565.936615	1.000073
566.292654	0.999641
566.648638	0.999794
567.004567	0.999405
567.360441	1.000276
567.716260	1.000431
568.072023	0.999850
568.427732	1.000155
568.783385	1.000210
569.138982	1.000339
569.494525	0.999497
569.850013	0.999810
570.205445	0.999461
570.560823	1.000208
570.916145	0.999628
571.271412	0.999590
571.626625	0.999624
571.981782	0.999731
572.336884	1.000265
572.691931	0.999800
573.046923	0.999819
573.401860	0.999946
573.756743	0.999147
574.111570	1.000455
574.466342	1.000228
574.821059	1.000357
575.175722	0.999479
575.530330	1.000249
575.884882	1.000092
576.239380	1.000262
576.593823	0.999901
576.948211	1.000043
577.302544	0.999465
577.656823	0.999989
578.011047	1.000371
578.365216	1.000206
578.719330	0.999075
579.073389	0.999980
579.427394	0.999839
579.781344	1.000209
580.135239	1.000039
580.489080	0.999663
580.842866	0.999971
581.196597	0.999401
581.550273	0.999309
581.903895	0.999906
582.257463	0.999744
582.610975	0.999695
582.964434	0.999873
583.317837	1.001223
583.671186	0.999162
584.024481	0.999620
584.377721	1.000156
584.730906	0.999669
585.084037	0.999904
585.437113	1.000251
585.790135	0.999784
586.143103	0.999716
586.496016	1.000793
586.848874	0.999543
587.201679	0.999253
587.554428	0.999611
587.907124	0.999592
588.259765	0.999515
588.612352	1.000016
588.964884	0.999920
589.317362	1.000353
589.669786	1.000161
590.022155	1.000314
590.374470	0.999702
590.726731	0.999203
591.078937	0.998845
591.431090	0.999232
591.783188	0.999972
592.135232	1.000228
592.487222	1.000193
592.839157	0.999825
593.191038	0.999951
593.542866	0.999970
593.894639	0.999917
594.246358	0.999060
594.598022	0.999940
594.949633	0.999652
595.301190	0.999252
595.652692	0.999853
596.004141	1.001121
596.355535	0.999631
596.706876	0.999326
597.058162	1.000013
597.409395	1.000276
597.760573	0.999202
598.111698	0.999617
598.462768	0.998879
598.813785	0.999021
599.164748	0.998848
599.515657	0.999849
599.866511	0.999034
600.217312	0.999282
600.568060	0.999070
600.918753	0.999669
601.269392	0.999273
601.619978	0.998872
601.970510	0.998835
602.320988	1.000008
602.671412	0.999142
603.021783	0.999313
603.372100	0.999986
603.722363	1.000789
604.072572	0.999463
604.422728	0.999466
604.772830	0.998552
605.122878	0.998796
605.472872	0.999592
605.822813	0.998878
606.172701	0.999480
606.522534	0.999861
606.872314	0.999217
607.222041	0.999240
607.571714	0.999847
607.921333	0.998514
608.270899	0.998896
608.620411	0.999459
608.969870	0.999837
609.319276	0.998639
609.668627	0.998981
610.017926	0.998592
610.367171	0.998090
610.716362	0.997951
611.065500	0.998701
611.414585	0.998582
611.763616	0.998909
612.112594	0.998747
612.461518	0.998686
612.810389	0.998336
613.159207	0.999047
613.507971	0.998119
613.856682	0.998343
614.205340	0.998594
614.553945	0.997725
614.902496	0.998242
615.250994	0.998239
615.599439	0.998916
615.947830	0.998543
616.296169	0.998340
616.644454	0.998470
616.992686	0.997899
617.340864	0.998050
617.688990	0.998007
618.037063	0.998895
618.385082	0.997904
618.733048	0.998312
619.080961	0.998100
619.428821	0.998302
619.776628	0.997790
620.124382	0.997588
620.472083	0.996804
620.819731	0.998323
621.167326	0.998019
621.514868	0.997742
621.862357	0.997686
622.209793	0.998796
622.557176	0.995960
622.904506	0.997439
623.251783	0.996849
623.599007	0.997140
623.946179	0.997052
624.293297	0.997417
624.640363	0.996706
624.987376	0.996441
625.334336	0.997190
625.681243	0.996690
626.028097	0.997519
626.374899	0.996767
626.721647	0.997126
627.068343	0.997157
627.414987	0.996525
627.761577	0.996466
628.108115	0.996513
628.454600	0.996288
628.801032	0.996164
629.147412	0.996698
629.493739	0.996001
629.840014	0.996081
630.186236	0.995863
630.532405	0.995836
630.878521	0.995933
631.224585	0.995396
631.570597	0.995380
631.916556	0.994804
632.262462	0.995056
632.608316	0.995240
632.954117	0.993936
633.299866	0.994973
633.645562	0.994381
633.991206	0.994646
634.336797	0.994981
634.682336	0.994151
635.027823	0.994704
635.373257	0.994738
635.718639	0.994044
636.063968	0.993006
636.409245	0.994716
636.754470	0.993424
637.099642	0.994008
637.444762	0.994153
637.789829	0.993207
638.134845	0.993261
638.479808	0.992627
638.824719	0.993168
639.169577	0.991920
639.514383	0.992149
639.859137	0.992109
640.203839	0.992497
640.548489	0.991482
640.893086	0.992206
641.237632	0.991788
641.582125	0.989798
641.926566	0.990374
642.270955	0.991060
642.615292	0.991492
642.959576	0.989847
643.303809	0.989826
643.647990	0.989020
643.992118	0.990008
644.336195	0.990417
644.680219	0.988413
645.024192	0.989377
645.368112	0.987920
645.711981	0.987512
646.055797	0.987279
646.399562	0.986413
646.743274	0.985013
647.086935	0.985688
647.430544	0.984495
647.774101	0.984207
648.117606	0.984055
648.461059	0.983390
648.804460	0.982627
649.147810	0.983097
649.491108	0.983380
649.834354	0.982558
650.177548	0.983953
650.520690	0.982986
650.863781	0.982214
651.206820	0.982072
651.549807	0.980990
651.892742	0.981095
652.235626	0.980742
652.578458	0.980651
652.921238	0.979837
653.263967	0.980208
653.606644	0.980607
653.949269	0.978672
654.291843	0.978683
654.634365	0.978062
654.976836	0.977212
655.319255	0.977041
655.661622	0.976774
656.003938	0.974786
656.346203	0.975229
656.688416	0.975609
657.030577	0.975035
657.372687	0.974264
657.714746	0.974199
658.056753	0.974111
658.398708	0.973469
658.740612	0.973560
659.082465	0.971815
659.424266	0.971119
659.766016	0.969649
660.107715	0.969716
660.449362	0.968906
660.790958	0.969435
661.132503	0.967362
661.473996	0.966712
661.815438	0.966423
662.156829	0.965542
662.498168	0.965591
662.839456	0.964772
663.180693	0.964997
663.521879	0.964142
663.863013	0.963244
664.204097	0.962697
664.545129	0.961707
664.886110	0.960807
665.227040	0.959039
665.567918	0.959037
665.908746	0.958553
666.249522	0.956467
666.590248	0.956646
666.930922	0.955991
667.271545	0.954493
667.612118	0.955059
667.952639	0.954019
668.293109	0.952695
668.633528	0.953052
668.973896	0.952652
669.314213	0.951547
669.654480	0.950359
669.994695	0.950330
670.334859	0.950304
670.674973	0.947744
671.015035	0.948946
671.355047	0.946372
671.695008	0.946657
672.034918	0.946917
672.374777	0.945120
672.714585	0.944437
673.054342	0.943545
673.394049	0.942970
673.733705	0.940423
674.073310	0.939368
674.412864	0.940896
674.752368	0.939296
675.091820	0.939088
675.431223	0.939467
675.770574	0.938123
676.109875	0.937651
676.449125	0.937482
676.788324	0.935852
677.127473	0.936821
677.466571	0.937111
677.805619	0.935589
678.144616	0.934518
678.483562	0.933945
678.822458	0.934105
679.161303	0.932452
679.500098	0.931195
679.838842	0.932817
680.177535	0.931332
680.516179	0.929636
680.854771	0.928895
681.193314	0.926675
681.531805	0.924196
681.870247	0.919337
682.208638	0.916608
682.546978	0.916590
682.885268	0.916508
683.223508	0.916583
683.561697	0.916116
683.899836	0.915821
684.237925	0.915706
684.575963	0.914662
684.913951	0.914908
685.251889	0.911987
685.589776	0.912335
685.927614	0.912547
686.265401	0.908766
686.603137	0.908526
686.940824	0.905161
687.278460	0.904726
687.616046	0.902301
687.953582	0.900231
688.291068	0.900192
688.628504	0.897488
