Dividing Wavelength (nm)	Counts (n)	Slit_number_40_of_a_total_of_40	
326.493990	1997.305154
326.888308	1997.305154
327.282561	1997.305154
327.676750	1946.893615
328.070874	1946.641558
328.464933	1960.252673
328.858929	1963.529423
329.252859	1970.334981
329.646726	1991.759885
330.040528	2007.639519
330.434265	2011.168327
330.827938	2050.237269
331.221547	2068.889538
331.615091	2065.864846
332.008571	2105.185846
332.401986	2128.627212
332.795338	2170.216731
333.188625	2172.737308
333.581847	2192.649865
333.975006	2216.595346
334.368100	2239.784654
334.761129	2225.921481
335.154095	2263.226019
335.546996	2349.681808
335.939833	2634.254942
336.332606	2652.655154
336.725315	2647.109885
337.117960	2700.798173
337.510540	2684.414423
337.903056	2681.893846
338.295508	2711.384596
338.687896	2715.417519
339.080220	2720.710731
339.472480	2722.727192
339.864676	2726.003942
340.256807	2716.425750
340.648875	2723.231308
341.040879	2732.557442
341.432818	2730.288923
341.824694	2746.420615
342.216506	2709.620192
342.608253	2713.149000
342.999937	2711.636654
343.391557	2705.083154
343.783113	2738.102712
344.174605	2713.653115
344.566033	2737.850654
344.957397	2702.310519
345.348697	2703.570808
345.739934	2729.280692
346.131106	2716.173692
346.522215	2710.124308
346.913260	2734.321846
347.304241	2721.971019
347.695159	2706.595500
348.086012	2710.376365
348.476802	2713.653115
348.867528	2708.864019
349.258191	2710.628423
349.648789	2699.537885
350.039324	2696.261135
350.429796	2716.677808
350.820203	2679.121212
351.210548	2708.611962
351.600828	2706.595500
351.991045	2723.735423
352.381198	2697.269365
352.771288	2715.669577
353.161314	2707.099615
353.551276	2704.579038
353.941175	2689.455577
354.331010	2696.513192
354.720782	2693.740558
355.110490	2711.132538
355.500135	2695.000846
355.889717	2701.806404
356.279235	2706.091385
356.668689	2709.872250
357.058080	2691.724096
357.447408	2708.864019
357.836672	2703.318750
358.225873	2732.305385
358.615010	2708.107846
359.004084	2715.165462
359.393095	2694.244673
359.782043	2721.971019
360.170927	2710.628423
360.559748	2726.003942
360.948505	2727.516288
361.337199	2739.363000
361.725830	2714.157231
362.114398	2720.458673
362.502903	2698.529654
362.891344	2730.288923
363.279722	2695.757019
363.668037	2726.256000
364.056289	2730.793038
364.444478	2728.272462
364.832603	2729.280692
365.220665	2713.401058
365.608665	2734.321846
365.996601	2705.839327
366.384474	2708.107846
366.772284	2729.028635
367.160031	2717.433981
367.547715	2730.540981
367.935336	2741.631519
368.322893	2719.450442
368.710388	2736.338308
369.097820	2736.338308
369.485189	2752.974115
369.872495	2745.412385
370.259738	2726.508058
370.646918	2757.007038
371.034035	2736.842423
371.421090	2729.280692
371.808081	2735.834192
372.195010	2751.965885
372.581875	2751.461769
372.968678	2766.837288
373.355418	2758.519385
373.742096	2756.250865
374.128710	2784.733385
374.515262	2788.010135
374.901751	2816.240596
375.288177	2805.654173
375.674540	2848.251923
376.060841	2819.769404
376.447079	2857.830115
376.833254	2870.433000
377.219367	2910.006058
377.605417	2937.228288
377.991404	2981.086327
378.377329	2966.214923
378.763191	3009.820904
379.148991	3036.791077
379.534727	3090.227308
379.920402	3131.816827
380.306013	3154.754077
380.691563	3217.768500
381.077049	3242.974269
381.462474	3302.711942
381.847835	3379.085423
382.233134	3438.823096
382.618371	3446.384827
383.003545	3541.158519
383.388657	3619.548462
383.773706	3687.856096
384.158693	3777.588635
384.543618	3886.729615
384.928480	3961.590750
385.313280	4040.484808
385.698017	4125.176192
386.082692	4223.226635
386.467305	4313.463288
386.851856	4458.648519
387.236344	4599.548769
387.620770	4630.047750
388.005133	4813.293692
388.389435	4932.264923
388.773674	5036.616808
389.157851	5195.413154
389.541965	5300.017096
389.926018	5384.204365
390.310008	5554.847423
390.693936	5688.690058
391.077802	5800.351615
391.461606	5964.945288
391.845348	6055.686058
392.229027	6237.419654
392.612645	6441.586385
392.996200	6554.508231
393.379694	6726.915692
393.763125	7030.645212
394.146494	7070.722385
394.529801	7252.708038
394.913047	7496.447827
395.296230	7586.180365
395.679351	7685.995212
396.062410	7980.146538
396.445408	7923.433558
396.828343	8079.961385
397.211217	8244.050942
397.594028	8219.097231
397.976778	8423.516019
398.359466	8610.038712
398.742092	8558.366885
399.124656	8789.755846
399.507158	8932.168442
399.889598	9031.479173
400.271977	9285.301269
400.654294	9396.206654
401.036549	9648.516404
401.418742	9653.053442
401.800874	10035.424962
402.182944	10090.121481
402.564952	10582.390154
402.946898	10378.727538
403.328783	10569.283154
403.710606	10758.074365
404.092367	11168.928404
404.474067	11489.545788
404.855705	11428.295769
405.237282	11489.545788
405.618797	12074.319635
406.000250	12192.786750
406.381642	12728.661404
406.762972	12883.172769
407.144240	12687.576000
407.525447	13126.408442
407.906593	12990.045231
408.287677	13305.873519
408.668700	13633.296462
409.049661	13689.505327
409.430560	13799.150423
409.811399	13866.953942
410.192176	14274.531231
410.572891	14302.761692
410.953545	15059.690942
411.334138	14535.158885
411.714669	15309.228058
412.095139	14396.275096
412.475547	15350.061404
412.855894	15018.857596
413.236180	15504.320712
413.616405	15168.831923
413.996568	15549.943154
414.376670	15597.582058
414.756711	15498.019269
415.136691	15839.053327
415.516609	16218.652212
415.896466	16235.540077
416.276262	16760.828308
416.655997	17086.234788
417.035670	17293.930327
417.415283	18472.047981
417.794834	18835.011058
418.174324	18715.031596
418.553753	18649.496596
418.933121	19268.802346
419.312428	18891.219923
419.691674	18883.154077
420.070859	19261.996788
420.449983	19216.374346
420.829045	19918.859135
421.208047	19605.047308
421.586988	20249.306769
421.965867	20915.999365
422.344686	21105.546750
422.723444	21474.307154
423.102141	20228.638038
423.480777	21639.404942
423.859352	21241.909962
424.237866	23011.859077
424.616319	22528.160365
424.994712	23429.266615
425.373044	23466.823212
425.751314	24448.335865
426.129524	23433.803654
426.507673	25155.357692
426.885762	24338.186654
427.263789	25061.844288
427.641756	25064.868981
428.019662	25497.904096
428.397508	25288.696212
428.775292	26254.833346
429.153016	26423.964058
429.530679	26542.935288
429.908282	26793.732692
430.285824	26225.594654
430.663305	27534.026135
431.040726	26882.457000
431.418086	26673.501173
431.795385	27767.683615
432.172624	28433.115923
432.549802	28144.761923
432.926920	28059.566423
433.303977	28157.868923
433.680974	28839.180865
434.057910	28888.836231
434.434786	29151.984462
434.811601	28888.584173
435.188355	30734.150596
435.565050	30228.018750
435.941683	30046.033096
436.318257	31542.751673
436.694770	31847.993538
437.071222	32809.593635
437.447614	31715.411192
437.823946	31984.608808
438.200218	31857.571731
438.576429	31665.251712
438.952580	31805.143731
439.328670	32287.078038
439.704700	32828.245904
440.080670	32207.679865
440.456580	33041.738769
440.832429	33842.021942
441.208218	32067.283731
441.583947	33221.707962
441.959616	33373.698750
442.335224	33569.043462
442.710773	33935.535346
443.086261	34750.185808
443.461689	34259.429481
443.837057	34189.861558
444.212365	35182.212692
444.587612	35501.317731
444.962800	34524.090058
445.337927	35695.402154
445.712995	33939.316212
446.088002	36812.521846
446.462949	37291.179404
446.837837	37593.144519
447.212664	36874.023923
447.587431	40012.646308
447.962139	43966.423269
448.336786	49875.915865
448.711374	51453.040846
449.085901	46583.286231
449.460369	45454.823942
449.834776	43706.803846
450.209124	45972.802500
450.583412	46400.796462
450.957640	49630.663731
451.331808	48199.732212
451.705917	45556.655250
452.079965	45041.449327
452.453954	45026.577923
452.827883	44718.311365
453.201752	44545.147731
453.575562	45455.580115
453.949311	47438.013865
454.323001	47527.242288
454.696632	47043.795635
455.070202	49888.770808
455.443713	49793.493000
455.817164	51277.356635
456.190556	52193.838404
456.563888	52046.636712
456.937160	53277.434423
457.310373	51391.034654
457.683526	52450.685192
458.056619	52290.376500
458.429653	51603.771346
458.802628	52118.221096
459.175542	52268.699538
459.548398	53919.929481
459.921194	56517.636058
460.293930	56618.963250
460.666607	59215.661596
461.039224	61317.570692
461.411782	62431.917750
461.784280	62120.626500
462.156719	62365.626577
462.529099	61988.800327
462.901419	60977.544865
463.273680	59710.198788
463.645882	59349.756288
464.018024	59184.658500
464.390106	59482.338635
464.762130	61127.267135
465.134094	63233.965327
465.505999	65535.000000
465.877845	65535.000000
466.249631	65535.000000
466.621358	65535.000000
466.993026	65535.000000
467.364634	65535.000000
467.736184	65535.000000
468.107674	65535.000000
468.479105	65535.000000
468.850477	65535.000000
469.221790	65535.000000
469.593043	65535.000000
469.964238	65331.085327
470.335373	65178.590423
470.706449	65426.363135
471.077467	65520.632712
471.448425	65535.000000
471.819324	65535.000000
472.190164	65535.000000
472.560945	65535.000000
472.931667	65535.000000
473.302330	65535.000000
473.672934	65535.000000
474.043479	65535.000000
474.413965	65535.000000
474.784393	65535.000000
475.154761	65535.000000
475.525070	65535.000000
475.895321	65535.000000
476.265513	65535.000000
476.635645	65535.000000
477.005719	65535.000000
477.375734	65535.000000
477.745691	65535.000000
478.115588	65535.000000
478.485427	65535.000000
478.855207	65535.000000
479.224928	65535.000000
479.594591	65535.000000
479.964194	65535.000000
480.333739	65535.000000
480.703226	65535.000000
481.072653	65535.000000
481.442022	65535.000000
481.811333	65535.000000
482.180584	65535.000000
482.549777	65535.000000
482.918912	65535.000000
483.287988	65535.000000
483.657005	65535.000000
484.025964	65535.000000
484.394864	65535.000000
484.763706	65535.000000
485.132489	65535.000000
485.501213	65535.000000
485.869879	65535.000000
486.238487	65535.000000
486.607036	65535.000000
486.975527	65535.000000
487.343959	65535.000000
487.712333	65535.000000
488.080648	65535.000000
488.448905	65535.000000
488.817104	65535.000000
489.185244	65535.000000
489.553326	65535.000000
489.921350	65535.000000
490.289315	65535.000000
490.657222	65535.000000
491.025070	65535.000000
491.392861	65535.000000
491.760593	65535.000000
492.128267	65535.000000
492.495883	65535.000000
492.863440	65535.000000
493.230939	65535.000000
493.598380	65535.000000
493.965763	65535.000000
494.333088	65535.000000
494.700354	65535.000000
495.067563	65535.000000
495.434713	65535.000000
495.801805	65535.000000
496.168839	65535.000000
496.535815	65535.000000
496.902733	65535.000000
497.269593	65535.000000
497.636395	65535.000000
498.003139	65535.000000
498.369825	65535.000000
498.736453	65535.000000
499.103023	65535.000000
499.469535	65535.000000
499.835989	65535.000000
500.202385	65535.000000
500.568723	65535.000000
500.935003	65535.000000
501.301226	65535.000000
501.667390	65535.000000
502.033497	65535.000000
502.399546	65535.000000
502.765537	65535.000000
503.131470	65535.000000
503.497345	65535.000000
503.863163	65535.000000
504.228923	65535.000000
504.594625	65535.000000
504.960269	65535.000000
505.325856	65535.000000
505.691385	65535.000000
506.056856	65535.000000
506.422270	65535.000000
506.787625	65535.000000
507.152924	65535.000000
507.518164	65535.000000
507.883347	65535.000000
508.248472	65535.000000
508.613540	65535.000000
508.978550	65535.000000
509.343503	65535.000000
509.708398	65535.000000
510.073236	65535.000000
510.438016	65535.000000
510.802738	65535.000000
511.167403	65535.000000
511.532010	65535.000000
511.896561	65535.000000
512.261053	65535.000000
512.625488	65535.000000
512.989866	65535.000000
513.354186	65535.000000
513.718449	65535.000000
514.082655	65535.000000
514.446803	65535.000000
514.810894	65535.000000
515.174927	65535.000000
515.538904	65535.000000
515.902822	65535.000000
516.266684	65535.000000
516.630488	65535.000000
516.994235	65535.000000
517.357925	65535.000000
517.721558	65535.000000
518.085133	65535.000000
518.448651	65535.000000
518.812112	65535.000000
519.175516	65535.000000
519.538863	65535.000000
519.902152	65535.000000
520.265385	65535.000000
520.628560	65535.000000
520.991678	65535.000000
521.354739	65535.000000
521.717743	65535.000000
522.080690	65535.000000
522.443580	65535.000000
522.806413	65535.000000
523.169189	65535.000000
523.531908	65535.000000
523.894569	65535.000000
524.257174	65535.000000
524.619722	65535.000000
524.982213	65535.000000
525.344647	65535.000000
525.707025	65535.000000
526.069345	65535.000000
526.431608	65535.000000
526.793815	65535.000000
527.155964	65535.000000
527.518057	65535.000000
527.880093	65535.000000
528.242072	65535.000000
528.603995	65535.000000
528.965860	65535.000000
529.327669	65535.000000
529.689421	65535.000000
530.051117	65535.000000
530.412755	65535.000000
530.774337	65535.000000
531.135862	65535.000000
531.497331	65535.000000
531.858743	65535.000000
532.220098	65535.000000
532.581396	65535.000000
532.942638	65535.000000
533.303824	65535.000000
533.664953	65535.000000
534.026025	65535.000000
534.387040	65535.000000
534.747999	65535.000000
535.108902	65535.000000
535.469748	65535.000000
535.830537	65535.000000
536.191270	65535.000000
536.551947	65535.000000
536.912567	65535.000000
537.273131	65535.000000
537.633638	65535.000000
537.994089	65535.000000
538.354483	65535.000000
538.714821	65535.000000
539.075103	65535.000000
539.435328	65535.000000
539.795497	65535.000000
540.155609	65535.000000
540.515665	65535.000000
540.875665	65535.000000
541.235609	65535.000000
541.595496	65535.000000
541.955328	65535.000000
542.315102	65535.000000
542.674821	65535.000000
543.034483	65535.000000
543.394090	65535.000000
543.753640	65535.000000
544.113134	65535.000000
544.472571	65535.000000
544.831953	65535.000000
545.191278	65535.000000
545.550548	65535.000000
545.909761	65535.000000
546.268918	65535.000000
546.628019	65535.000000
546.987064	65535.000000
547.346053	65535.000000
547.704986	65535.000000
548.063863	65535.000000
548.422684	65535.000000
548.781449	65535.000000
549.140158	65535.000000
549.498811	65535.000000
549.857408	65535.000000
550.215949	65535.000000
550.574434	65535.000000
550.932864	65535.000000
551.291237	65535.000000
551.649555	65535.000000
552.007817	65535.000000
552.366022	65535.000000
552.724173	65535.000000
553.082267	65535.000000
553.440305	65535.000000
553.798288	65535.000000
554.156215	65535.000000
554.514086	65535.000000
554.871902	65535.000000
555.229661	65535.000000
555.587365	65535.000000
555.945014	65535.000000
556.302606	65535.000000
556.660143	65535.000000
557.017625	65535.000000
557.375050	65535.000000
557.732421	65535.000000
558.089735	65535.000000
558.446994	65535.000000
558.804197	65535.000000
559.161345	65535.000000
559.518437	65535.000000
559.875474	65535.000000
560.232455	65535.000000
560.589381	65535.000000
560.946251	65535.000000
561.303065	65535.000000
561.659825	65535.000000
562.016528	65535.000000
562.373177	65535.000000
562.729770	65535.000000
563.086307	65535.000000
563.442789	65535.000000
563.799216	65535.000000
564.155587	65535.000000
564.511904	65535.000000
564.868164	65535.000000
565.224370	65535.000000
565.580520	65535.000000
565.936615	65535.000000
566.292654	65535.000000
566.648638	65535.000000
567.004567	65535.000000
567.360441	65535.000000
567.716260	65535.000000
568.072023	65535.000000
568.427732	65535.000000
568.783385	65535.000000
569.138982	65535.000000
569.494525	65535.000000
569.850013	65535.000000
570.205445	65535.000000
570.560823	65535.000000
570.916145	65535.000000
571.271412	65535.000000
571.626625	65535.000000
571.981782	65535.000000
572.336884	65535.000000
572.691931	65535.000000
573.046923	65535.000000
573.401860	65535.000000
573.756743	65535.000000
574.111570	65535.000000
574.466342	65535.000000
574.821059	65535.000000
575.175722	65535.000000
575.530330	65535.000000
575.884882	65535.000000
576.239380	65535.000000
576.593823	65535.000000
576.948211	65535.000000
577.302544	65535.000000
577.656823	65535.000000
578.011047	65535.000000
578.365216	65535.000000
578.719330	65535.000000
579.073389	65535.000000
579.427394	65535.000000
579.781344	65535.000000
580.135239	65535.000000
580.489080	65535.000000
580.842866	65535.000000
581.196597	65535.000000
581.550273	65535.000000
581.903895	65535.000000
582.257463	65535.000000
582.610975	65535.000000
582.964434	65535.000000
583.317837	65535.000000
583.671186	65535.000000
584.024481	65535.000000
584.377721	65535.000000
584.730906	65535.000000
585.084037	65535.000000
585.437113	65535.000000
585.790135	65535.000000
586.143103	65535.000000
586.496016	65535.000000
586.848874	65535.000000
587.201679	65535.000000
587.554428	65535.000000
587.907124	65535.000000
588.259765	65535.000000
588.612352	65535.000000
588.964884	65535.000000
589.317362	65535.000000
589.669786	65535.000000
590.022155	65535.000000
590.374470	65535.000000
590.726731	65535.000000
591.078937	65535.000000
591.431090	65535.000000
591.783188	65535.000000
592.135232	65535.000000
592.487222	65535.000000
592.839157	65535.000000
593.191038	65535.000000
593.542866	65535.000000
593.894639	65535.000000
594.246358	65535.000000
594.598022	65535.000000
594.949633	65535.000000
595.301190	65535.000000
595.652692	65535.000000
596.004141	65535.000000
596.355535	65535.000000
596.706876	65535.000000
597.058162	65535.000000
597.409395	65535.000000
597.760573	65535.000000
598.111698	65535.000000
598.462768	65535.000000
598.813785	65535.000000
599.164748	65535.000000
599.515657	65535.000000
599.866511	65535.000000
600.217312	65535.000000
600.568060	65535.000000
600.918753	65535.000000
601.269392	65535.000000
601.619978	65535.000000
601.970510	65535.000000
602.320988	65535.000000
602.671412	65535.000000
603.021783	65535.000000
603.372100	65535.000000
603.722363	65535.000000
604.072572	65535.000000
604.422728	65535.000000
604.772830	65535.000000
605.122878	65535.000000
605.472872	65535.000000
605.822813	65535.000000
606.172701	65535.000000
606.522534	65535.000000
606.872314	65535.000000
607.222041	65535.000000
607.571714	65535.000000
607.921333	65535.000000
608.270899	65535.000000
608.620411	65535.000000
608.969870	65535.000000
609.319276	65535.000000
609.668627	65535.000000
610.017926	65535.000000
610.367171	65535.000000
610.716362	65535.000000
611.065500	65535.000000
611.414585	65535.000000
611.763616	65535.000000
612.112594	65535.000000
612.461518	65535.000000
612.810389	65535.000000
613.159207	65535.000000
613.507971	65535.000000
613.856682	65535.000000
614.205340	65535.000000
614.553945	65535.000000
614.902496	65535.000000
615.250994	65535.000000
615.599439	65535.000000
615.947830	65535.000000
616.296169	65535.000000
616.644454	65535.000000
616.992686	65535.000000
617.340864	65535.000000
617.688990	65535.000000
618.037063	65535.000000
618.385082	65535.000000
618.733048	65535.000000
619.080961	65535.000000
619.428821	65535.000000
619.776628	65535.000000
620.124382	65535.000000
620.472083	65535.000000
620.819731	65535.000000
621.167326	65535.000000
621.514868	65535.000000
621.862357	65535.000000
622.209793	65535.000000
622.557176	65535.000000
622.904506	65535.000000
623.251783	65535.000000
623.599007	65535.000000
623.946179	65535.000000
624.293297	65535.000000
624.640363	65535.000000
624.987376	65535.000000
625.334336	65535.000000
625.681243	65535.000000
626.028097	65535.000000
626.374899	65535.000000
626.721647	65535.000000
627.068343	65535.000000
627.414987	65535.000000
627.761577	65535.000000
628.108115	65535.000000
628.454600	65535.000000
628.801032	65535.000000
629.147412	65535.000000
629.493739	65535.000000
629.840014	65535.000000
630.186236	65535.000000
630.532405	65535.000000
630.878521	65535.000000
631.224585	65535.000000
631.570597	65535.000000
631.916556	65535.000000
632.262462	65535.000000
632.608316	65535.000000
632.954117	65535.000000
633.299866	65535.000000
633.645562	65535.000000
633.991206	65535.000000
634.336797	65535.000000
634.682336	65535.000000
635.027823	65535.000000
635.373257	65535.000000
