Dividing Wavelength (nm)	Counts (n)	Slit_number_40_of_a_total_of_40	
326.493990	2033.601462
326.888308	2033.601462
327.282561	2033.601462
327.676750	2017.217712
328.070874	2025.787673
328.464933	2012.428615
328.858929	2023.519154
329.252859	2059.311346
329.646726	2063.596327
330.040528	2069.141596
330.434265	2102.161154
330.827938	2128.123096
331.221547	2124.594288
331.615091	2144.758904
332.008571	2156.353558
332.401986	2219.620038
332.795338	2204.496577
333.188625	2225.921481
333.581847	2261.461615
333.975006	2269.023346
334.368100	2318.174596
334.761129	2314.141673
335.154095	2313.889615
335.546996	2432.356731
335.939833	2612.577981
336.332606	2663.493635
336.725315	2669.290962
337.117960	2667.778615
337.510540	2689.707635
337.903056	2690.211750
338.295508	2711.384596
338.687896	2699.789942
339.080220	2710.124308
339.472480	2723.735423
339.864676	2708.611962
340.256807	2733.565673
340.648875	2737.850654
341.040879	2714.409288
341.432818	2710.376365
341.824694	2737.850654
342.216506	2732.809500
342.608253	2729.784808
342.999937	2709.620192
343.391557	2726.003942
343.783113	2723.735423
344.174605	2743.647981
344.566033	2715.669577
344.957397	2717.938096
345.348697	2707.603731
345.739934	2727.012173
346.131106	2746.420615
346.522215	2708.359904
346.913260	2742.639750
347.304241	2703.066692
347.695159	2714.409288
348.086012	2690.211750
348.476802	2691.724096
348.867528	2724.995712
349.258191	2680.885615
349.648789	2683.154135
350.039324	2690.463808
350.429796	2678.869154
350.820203	2693.740558
351.210548	2712.896942
351.600828	2682.902077
351.991045	2679.121212
352.381198	2691.976154
352.771288	2710.880481
353.161314	2668.030673
353.551276	2684.666481
353.941175	2709.368135
354.331010	2685.170596
354.720782	2700.294058
355.110490	2704.326981
355.500135	2698.025538
355.889717	2721.718962
356.279235	2716.173692
356.668689	2666.770385
357.058080	2727.012173
357.447408	2695.000846
357.836672	2707.855788
358.225873	2678.869154
358.615010	2693.236442
359.004084	2700.042000
359.393095	2690.463808
359.782043	2667.022442
360.170927	2729.280692
360.559748	2715.669577
360.948505	2711.888712
361.337199	2687.187058
361.725830	2713.653115
362.114398	2721.466904
362.502903	2709.620192
362.891344	2737.850654
363.279722	2728.776577
363.668037	2698.529654
364.056289	2713.905173
364.444478	2707.351673
364.832603	2707.855788
365.220665	2703.570808
365.608665	2732.557442
365.996601	2734.321846
366.384474	2732.053327
366.772284	2712.896942
367.160031	2724.491596
367.547715	2744.152096
367.935336	2713.149000
368.322893	2706.091385
368.710388	2710.628423
369.097820	2715.165462
369.485189	2710.124308
369.872495	2744.152096
370.259738	2723.735423
370.646918	2692.480269
371.034035	2731.549212
371.421090	2738.354769
371.808081	2744.152096
372.195010	2727.768346
372.581875	2750.705596
372.968678	2743.647981
373.355418	2728.524519
373.742096	2752.722058
374.128710	2777.171654
374.515262	2768.853750
374.901751	2789.522481
375.288177	2787.758077
375.674540	2779.440173
376.060841	2825.062615
376.447079	2830.859942
376.833254	2855.057481
377.219367	2868.164481
377.605417	2879.002962
377.991404	2893.118192
378.377329	2956.384673
378.763191	2934.455654
379.148991	2980.330154
379.534727	3025.196423
379.920402	3064.517423
380.306013	3110.643981
380.691563	3127.279788
381.077049	3130.808596
381.462474	3212.727346
381.847835	3241.209865
382.233134	3310.021615
382.618371	3366.734596
383.003545	3403.787077
383.388657	3474.867346
383.773706	3502.593692
384.158693	3577.202769
384.543618	3656.600942
384.928480	3719.615365
385.313280	3790.947692
385.698017	3888.998135
386.082692	3990.325327
386.467305	4013.010519
386.851856	4126.184423
387.236344	4282.964308
387.620770	4303.128923
388.005133	4390.592942
388.389435	4537.542577
388.773674	4611.899596
389.157851	4708.185635
389.541965	4859.420250
389.926018	4846.817365
390.310008	5017.964538
390.693936	5097.866827
391.077802	5223.391558
391.461606	5302.537673
391.845348	5403.612808
392.229027	5565.685904
392.612645	5754.981231
392.996200	5808.165404
393.379694	5987.630481
393.763125	6137.604808
394.146494	6283.798269
394.529801	6396.216000
394.913047	6608.196519
395.296230	6665.161558
395.679351	6675.243865
396.062410	6936.375635
396.445408	6875.881788
396.828343	7051.566000
397.211217	7195.490942
397.594028	7082.317038
397.976778	7267.579442
398.359466	7448.808923
398.742092	7418.814058
399.124656	7648.942731
399.507158	7731.113538
399.889598	7783.793596
400.271977	7953.176365
400.654294	8049.210346
401.036549	8226.911019
401.418742	8285.892519
401.800874	8604.241385
402.182944	8641.041808
402.564952	8988.125250
402.946898	8903.937981
403.328783	9015.851596
403.710606	9212.456596
404.092367	9474.092481
404.474067	9777.822000
404.855705	9617.513308
405.237282	9626.839442
405.618797	10163.974385
406.000250	10396.623635
406.381642	10692.539365
406.762972	10812.014712
407.144240	10675.399442
407.525447	10958.712288
407.906593	10849.571308
408.287677	11082.976731
408.668700	11393.763865
409.049661	11368.810154
409.430560	11598.686769
409.811399	11608.264962
410.192176	11873.429654
410.572891	11836.377173
410.953545	12440.559462
411.334138	12067.766135
411.714669	12678.753981
412.095139	11998.450269
412.475547	12709.252962
412.855894	12469.546096
413.236180	12816.881596
413.616405	12547.936038
413.996568	12872.586346
414.376670	12877.375442
414.756711	12797.977269
415.136691	13185.894058
415.516609	13396.866346
415.896466	13434.170885
416.276262	13847.293442
416.655997	14037.344942
417.035670	14188.831615
417.415283	15102.288692
417.794834	15392.155038
418.174324	15182.190981
418.553753	15171.856615
418.933121	15729.660288
419.312428	15517.175654
419.691674	15472.057327
420.070859	15818.132538
420.449983	15633.626308
420.829045	16273.096673
421.208047	15991.044115
421.586988	16517.592635
421.965867	17049.182308
422.344686	17189.578442
422.723444	17432.310000
423.102141	16514.315885
423.480777	17594.383096
423.859352	17288.889173
424.237866	18692.598462
424.616319	18352.824692
424.994712	19110.258058
425.373044	19114.038923
425.751314	19768.632750
426.129524	19029.599596
426.507673	20280.309865
426.885762	19798.627615
427.263789	20283.838673
427.641756	20262.161712
428.019662	20616.554827
428.397508	20438.097981
428.775292	21202.084846
429.153016	21377.012885
429.530679	21416.838000
429.908282	21578.911096
430.285824	21174.106442
430.663305	22283.664404
431.040726	21682.254750
431.418086	21578.154923
431.795385	22344.410308
432.172624	22951.617288
432.549802	22670.572962
432.926920	22544.796173
433.303977	22768.371346
433.680974	23213.505231
434.057910	23262.152365
434.434786	23463.042346
434.811601	23219.302558
435.188355	24699.889442
435.565050	24293.824500
435.941683	24220.727769
436.318257	25310.373173
436.694770	25632.250846
437.071222	26266.680058
437.447614	25508.994635
437.823946	25617.883558
438.200218	25525.126327
438.576429	25369.354673
438.952580	25479.251827
439.328670	25846.499885
439.704700	26242.986635
440.080670	25870.445365
440.456580	26549.740846
440.832429	27118.383000
441.208218	25683.922673
441.583947	26552.009365
441.959616	26654.596846
442.335224	26830.029000
442.710773	27256.006500
443.086261	27857.164096
443.461689	27541.335808
443.837057	27394.134115
444.212365	28142.493404
444.587612	28501.675615
444.962800	27646.695923
445.337927	28568.975019
445.712995	27177.868615
446.088002	29389.170750
446.462949	29919.248077
446.837837	30000.914769
447.212664	29595.101885
447.587431	31996.455519
447.962139	35470.062577
448.336786	40229.415923
448.711374	41394.930692
449.085901	37070.880981
449.460369	36059.373462
449.834776	34668.771173
450.209124	36809.497154
450.583412	37164.142327
450.957640	39938.289288
451.331808	38387.630365
451.705917	36309.414692
452.079965	35785.638808
452.453954	35854.198500
452.827883	35745.813692
453.201752	35537.109923
453.575562	36380.494962
453.949311	37917.038654
454.323001	38072.558250
454.696632	37649.605442
455.070202	39887.121577
455.443713	39809.235750
455.817164	41230.841135
456.190556	41968.109885
456.563888	41976.175731
456.937160	42962.477481
457.310373	41265.625096
457.683526	42005.918538
458.056619	41846.366019
458.429653	41442.569596
458.802628	41938.115019
459.175542	42188.408308
459.548398	43581.027058
459.921194	46402.560865
460.293930	46432.303673
460.666607	49641.502212
461.039224	52277.773615
461.411782	54070.407923
461.784280	53314.234846
462.156719	53631.827538
462.529099	52991.853058
462.901419	51677.120135
463.273680	49793.997115
463.645882	49598.400346
464.018024	49502.618423
464.390106	49671.497077
464.762130	52279.033904
465.134094	55491.509192
465.505999	60096.351173
465.877845	64585.246615
466.249631	65535.000000
466.621358	65535.000000
466.993026	65535.000000
467.364634	65053.821865
467.736184	63381.419077
468.107674	62585.420885
468.479105	61977.709788
468.850477	61503.085154
469.221790	60417.976788
469.593043	58704.488596
469.964238	57906.978058
470.335373	57684.915231
470.706449	58371.772442
471.077467	59011.494865
471.448425	62757.828346
471.819324	65535.000000
472.190164	65535.000000
472.560945	65252.947442
472.931667	62823.615404
473.302330	61438.054269
473.672934	60540.980942
474.043479	60816.732058
474.413965	60007.374808
474.784393	59732.883981
475.154761	60760.775250
475.525070	60729.015981
475.895321	60517.539577
476.265513	61114.160135
476.635645	61838.826000
477.005719	61923.517385
477.375734	62391.588519
477.745691	62879.320154
478.115588	64047.103442
478.485427	65045.503962
478.855207	65535.000000
479.224928	65535.000000
479.594591	65535.000000
479.964194	65535.000000
480.333739	65535.000000
480.703226	65535.000000
481.072653	65535.000000
481.442022	65535.000000
481.811333	65535.000000
482.180584	65535.000000
482.549777	65535.000000
482.918912	65535.000000
483.287988	65535.000000
483.657005	65535.000000
484.025964	65535.000000
484.394864	65535.000000
484.763706	65535.000000
485.132489	65535.000000
485.501213	65535.000000
485.869879	65535.000000
486.238487	65535.000000
486.607036	65535.000000
486.975527	65535.000000
487.343959	65535.000000
487.712333	65535.000000
488.080648	65535.000000
488.448905	65535.000000
488.817104	65535.000000
489.185244	65535.000000
489.553326	65535.000000
489.921350	65535.000000
490.289315	65535.000000
490.657222	65535.000000
491.025070	65535.000000
491.392861	65535.000000
491.760593	65535.000000
492.128267	65535.000000
492.495883	65535.000000
492.863440	65535.000000
493.230939	65535.000000
493.598380	65535.000000
493.965763	65535.000000
494.333088	65535.000000
494.700354	65535.000000
495.067563	65535.000000
495.434713	65535.000000
495.801805	65535.000000
496.168839	65535.000000
496.535815	65535.000000
496.902733	65535.000000
497.269593	65535.000000
497.636395	65535.000000
498.003139	65535.000000
498.369825	65535.000000
498.736453	65535.000000
499.103023	65535.000000
499.469535	65535.000000
499.835989	65535.000000
500.202385	65535.000000
500.568723	65535.000000
500.935003	65535.000000
501.301226	65535.000000
501.667390	65535.000000
502.033497	65535.000000
502.399546	65535.000000
502.765537	65535.000000
503.131470	65535.000000
503.497345	65535.000000
503.863163	65535.000000
504.228923	65535.000000
504.594625	65535.000000
504.960269	65535.000000
505.325856	65535.000000
505.691385	65535.000000
506.056856	65535.000000
506.422270	65535.000000
506.787625	65535.000000
507.152924	65535.000000
507.518164	65535.000000
507.883347	65535.000000
508.248472	65535.000000
508.613540	65535.000000
508.978550	65535.000000
509.343503	65535.000000
509.708398	65535.000000
510.073236	65535.000000
510.438016	65535.000000
510.802738	65535.000000
511.167403	65535.000000
511.532010	65535.000000
511.896561	65535.000000
512.261053	65535.000000
512.625488	65535.000000
512.989866	65535.000000
513.354186	65535.000000
513.718449	65535.000000
514.082655	65535.000000
514.446803	65535.000000
514.810894	65535.000000
515.174927	65535.000000
515.538904	65535.000000
515.902822	65535.000000
516.266684	65535.000000
516.630488	65535.000000
516.994235	65535.000000
517.357925	65535.000000
517.721558	65535.000000
518.085133	65535.000000
518.448651	65535.000000
518.812112	65535.000000
519.175516	65535.000000
519.538863	65535.000000
519.902152	65535.000000
520.265385	65535.000000
520.628560	65535.000000
520.991678	65535.000000
521.354739	65535.000000
521.717743	65535.000000
522.080690	65535.000000
522.443580	65535.000000
522.806413	65535.000000
523.169189	65535.000000
523.531908	65535.000000
523.894569	65535.000000
524.257174	65535.000000
524.619722	65535.000000
524.982213	65535.000000
525.344647	65535.000000
525.707025	65535.000000
526.069345	65535.000000
526.431608	65535.000000
526.793815	65535.000000
527.155964	65535.000000
527.518057	65535.000000
527.880093	65535.000000
528.242072	65535.000000
528.603995	65535.000000
528.965860	65535.000000
529.327669	65535.000000
529.689421	65535.000000
530.051117	65535.000000
530.412755	65535.000000
530.774337	65535.000000
531.135862	65535.000000
531.497331	65535.000000
531.858743	65535.000000
532.220098	65535.000000
532.581396	65535.000000
532.942638	65535.000000
533.303824	65535.000000
533.664953	65535.000000
534.026025	65535.000000
534.387040	65535.000000
534.747999	65535.000000
535.108902	65535.000000
535.469748	65535.000000
535.830537	65535.000000
536.191270	65535.000000
536.551947	65535.000000
536.912567	65535.000000
537.273131	65535.000000
537.633638	65535.000000
537.994089	65535.000000
538.354483	65535.000000
538.714821	65535.000000
539.075103	65535.000000
539.435328	65535.000000
539.795497	65535.000000
540.155609	65535.000000
540.515665	65535.000000
540.875665	65535.000000
541.235609	65535.000000
541.595496	65535.000000
541.955328	65535.000000
542.315102	65535.000000
542.674821	65535.000000
543.034483	65535.000000
543.394090	65535.000000
543.753640	65535.000000
544.113134	65535.000000
544.472571	65535.000000
544.831953	65535.000000
545.191278	65535.000000
545.550548	65535.000000
545.909761	65535.000000
546.268918	65535.000000
546.628019	65535.000000
546.987064	65535.000000
547.346053	65535.000000
547.704986	65535.000000
548.063863	65535.000000
548.422684	65535.000000
548.781449	65535.000000
549.140158	65535.000000
549.498811	65535.000000
549.857408	65535.000000
550.215949	65535.000000
550.574434	65535.000000
550.932864	65535.000000
551.291237	65535.000000
551.649555	65535.000000
552.007817	65535.000000
552.366022	65535.000000
552.724173	65535.000000
553.082267	65535.000000
553.440305	65535.000000
553.798288	65535.000000
554.156215	65535.000000
554.514086	65535.000000
554.871902	65535.000000
555.229661	65535.000000
555.587365	65535.000000
555.945014	65535.000000
556.302606	65535.000000
556.660143	65535.000000
557.017625	65535.000000
557.375050	65535.000000
557.732421	65535.000000
558.089735	65535.000000
558.446994	65535.000000
558.804197	65535.000000
559.161345	65535.000000
559.518437	65535.000000
559.875474	65535.000000
560.232455	65535.000000
560.589381	65535.000000
560.946251	65535.000000
561.303065	65535.000000
561.659825	65535.000000
562.016528	65535.000000
562.373177	65535.000000
562.729770	65535.000000
563.086307	65535.000000
563.442789	65535.000000
563.799216	65535.000000
564.155587	65535.000000
564.511904	65535.000000
564.868164	65535.000000
565.224370	65535.000000
565.580520	65535.000000
565.936615	65535.000000
566.292654	65535.000000
566.648638	65535.000000
567.004567	65535.000000
567.360441	65535.000000
567.716260	65535.000000
568.072023	65535.000000
568.427732	65535.000000
568.783385	65535.000000
569.138982	65535.000000
569.494525	65535.000000
569.850013	65535.000000
570.205445	65535.000000
570.560823	65535.000000
570.916145	65535.000000
571.271412	65535.000000
571.626625	65535.000000
571.981782	65535.000000
572.336884	65535.000000
572.691931	65535.000000
573.046923	65535.000000
573.401860	65535.000000
573.756743	65535.000000
574.111570	65535.000000
574.466342	65535.000000
574.821059	65535.000000
575.175722	65535.000000
575.530330	65535.000000
575.884882	65535.000000
576.239380	65535.000000
576.593823	65535.000000
576.948211	65535.000000
577.302544	65535.000000
577.656823	65535.000000
578.011047	65535.000000
578.365216	65535.000000
578.719330	65535.000000
579.073389	65535.000000
579.427394	65535.000000
579.781344	65535.000000
580.135239	65535.000000
580.489080	65535.000000
580.842866	65535.000000
581.196597	65535.000000
581.550273	65535.000000
581.903895	65535.000000
582.257463	65535.000000
582.610975	65535.000000
582.964434	65535.000000
583.317837	65535.000000
583.671186	65535.000000
584.024481	65535.000000
584.377721	65535.000000
584.730906	65535.000000
585.084037	65535.000000
585.437113	65535.000000
585.790135	65535.000000
586.143103	65535.000000
586.496016	65535.000000
586.848874	65535.000000
587.201679	65535.000000
587.554428	65535.000000
587.907124	65535.000000
588.259765	65535.000000
588.612352	65535.000000
588.964884	65535.000000
589.317362	65535.000000
589.669786	65535.000000
590.022155	65535.000000
590.374470	65535.000000
590.726731	65535.000000
591.078937	65535.000000
591.431090	65535.000000
591.783188	65535.000000
592.135232	65535.000000
592.487222	65535.000000
592.839157	65535.000000
593.191038	65535.000000
593.542866	65535.000000
593.894639	65535.000000
594.246358	65535.000000
594.598022	65535.000000
594.949633	65535.000000
595.301190	65535.000000
595.652692	65535.000000
596.004141	65535.000000
596.355535	65535.000000
596.706876	65535.000000
597.058162	65535.000000
597.409395	65535.000000
597.760573	65535.000000
598.111698	65535.000000
598.462768	65535.000000
598.813785	65535.000000
599.164748	65535.000000
599.515657	65535.000000
599.866511	65535.000000
600.217312	65535.000000
600.568060	65535.000000
600.918753	65535.000000
601.269392	65535.000000
601.619978	65535.000000
601.970510	65535.000000
602.320988	65535.000000
602.671412	65535.000000
603.021783	65535.000000
603.372100	65535.000000
603.722363	65535.000000
604.072572	65535.000000
604.422728	65535.000000
604.772830	65535.000000
605.122878	65535.000000
605.472872	65535.000000
605.822813	65535.000000
606.172701	65535.000000
606.522534	65535.000000
606.872314	65535.000000
607.222041	65535.000000
607.571714	65535.000000
607.921333	65535.000000
608.270899	65535.000000
608.620411	65535.000000
608.969870	65535.000000
609.319276	65535.000000
609.668627	65535.000000
610.017926	65535.000000
610.367171	65535.000000
610.716362	65535.000000
611.065500	65535.000000
611.414585	65535.000000
611.763616	65535.000000
612.112594	65535.000000
612.461518	65535.000000
612.810389	65535.000000
613.159207	65535.000000
613.507971	65535.000000
613.856682	65535.000000
614.205340	65535.000000
614.553945	65535.000000
614.902496	65535.000000
615.250994	65535.000000
615.599439	65535.000000
615.947830	65535.000000
616.296169	65535.000000
616.644454	65535.000000
616.992686	65535.000000
617.340864	65535.000000
617.688990	65535.000000
618.037063	65535.000000
618.385082	65535.000000
618.733048	65535.000000
619.080961	65535.000000
619.428821	65535.000000
619.776628	65535.000000
620.124382	65535.000000
620.472083	65535.000000
620.819731	65535.000000
621.167326	65535.000000
621.514868	65535.000000
621.862357	65535.000000
622.209793	65535.000000
622.557176	65535.000000
622.904506	65535.000000
623.251783	65535.000000
623.599007	65535.000000
623.946179	65535.000000
624.293297	65535.000000
624.640363	65535.000000
624.987376	65535.000000
625.334336	65535.000000
625.681243	65535.000000
626.028097	65535.000000
626.374899	65535.000000
626.721647	65535.000000
627.068343	65535.000000
627.414987	65535.000000
627.761577	65535.000000
628.108115	65535.000000
628.454600	65535.000000
628.801032	65535.000000
629.147412	65535.000000
629.493739	65535.000000
629.840014	65535.000000
630.186236	65535.000000
630.532405	65535.000000
630.878521	65535.000000
631.224585	65535.000000
631.570597	65535.000000
631.916556	65535.000000
632.262462	65535.000000
632.608316	65535.000000
632.954117	65535.000000
633.299866	65535.000000
633.645562	65535.000000
633.991206	65535.000000
634.336797	65535.000000
634.682336	65535.000000
635.027823	65535.000000
635.373257	65535.000000
