Dividing Wavelength (nm)	Power (W)	
900.000000	17.002917
899.000000	15.201645
898.000000	55.813205
897.000000	77.078275
896.000000	28.030697
895.000000	75.414097
894.000000	37.233913
893.000000	31.298030
892.000000	24.934109
891.000000	18.358167
890.000000	52.103796
889.000000	54.421293
888.000000	36.876705
887.000000	38.992010
886.000000	46.218536
885.000000	53.983684
884.000000	19.162780
883.000000	3.109872
882.000000	76.299061
881.000000	2.512365
880.000000	64.615214
879.000000	15.495610
878.000000	98.904734
877.000000	86.922650
876.000000	37.821684
875.000000	2.201842
874.000000	64.662775
873.000000	55.778641
872.000000	63.606583
871.000000	78.910081
870.000000	19.537871
869.000000	32.663966
868.000000	17.283047
867.000000	52.227221
866.000000	23.646092
865.000000	82.033136
864.000000	93.101759
863.000000	56.875515
862.000000	67.137542
861.000000	24.234036
860.000000	44.476948
859.000000	52.458651
858.000000	51.330450
857.000000	76.301629
856.000000	86.441075
855.000000	16.859739
854.000000	59.912433
853.000000	98.494519
852.000000	60.424521
851.000000	22.010670
850.000000	65.640291
849.000000	77.879449
848.000000	85.296162
847.000000	98.533264
846.000000	59.253736
845.000000	83.549623
844.000000	64.983047
843.000000	48.807226
842.000000	53.697675
841.000000	14.595253
840.000000	0.115361
839.000000	56.408289
838.000000	68.391710
837.000000	47.758620
836.000000	43.066124
835.000000	94.996644
834.000000	98.329627
833.000000	92.243259
832.000000	70.637335
831.000000	43.806191
830.000000	10.133441
829.000000	30.643515
828.000000	1.917360
827.000000	81.476156
826.000000	1.338227
825.000000	10.119288
824.000000	39.335654
823.000000	84.498003
822.000000	89.109826
821.000000	22.717387
820.000000	54.874569
819.000000	32.085079
818.000000	98.655882
817.000000	82.103932
816.000000	8.557084
815.000000	26.452191
814.000000	70.062109
813.000000	66.044700
812.000000	4.926532
811.000000	1.880331
810.000000	39.714602
809.000000	82.888669
808.000000	7.874526
807.000000	76.259601
806.000000	12.704452
805.000000	20.018387
804.000000	66.908802
803.000000	40.665232
802.000000	23.574402
801.000000	43.495821
800.000000	6.595985
799.000000	94.006786
798.000000	54.848416
797.000000	61.083277
796.000000	12.504119
795.000000	40.493224
794.000000	14.246259
793.000000	56.168353
792.000000	42.112639
791.000000	69.334191
790.000000	75.695002
789.000000	75.311152
788.000000	44.501341
787.000000	22.967610
786.000000	6.325522
785.000000	63.630460
784.000000	22.873687
783.000000	4.652021
782.000000	6.333142
781.000000	16.065353
780.000000	77.966139
779.000000	74.899515
778.000000	87.867005
777.000000	53.081664
776.000000	32.143137
775.000000	99.692794
774.000000	23.241179
773.000000	40.296370
772.000000	67.376864
771.000000	10.274758
770.000000	98.844178
769.000000	98.067080
768.000000	2.675714
767.000000	74.142724
766.000000	41.087126
765.000000	4.728780
764.000000	68.245622
763.000000	66.640445
762.000000	34.843021
761.000000	82.516455
760.000000	22.195177
759.000000	75.010882
758.000000	51.320477
757.000000	95.167938
756.000000	97.015371
755.000000	83.321660
754.000000	58.494346
753.000000	99.038823
752.000000	96.957088
751.000000	23.462886
750.000000	42.453871
749.000000	85.415531
748.000000	48.271029
747.000000	92.612725
746.000000	49.736001
745.000000	19.050521
744.000000	59.966280
743.000000	8.233506
742.000000	29.092804
741.000000	64.429116
740.000000	32.219893
739.000000	60.766845
738.000000	37.019119
737.000000	53.634561
736.000000	81.190636
735.000000	97.982923
734.000000	9.470412
733.000000	26.534655
732.000000	83.072444
731.000000	82.400649
730.000000	26.984634
729.000000	38.454222
728.000000	23.996998
727.000000	76.099281
726.000000	23.550231
725.000000	51.102664
724.000000	89.360783
723.000000	13.610305
722.000000	38.717070
721.000000	27.978936
720.000000	82.782914
719.000000	96.925976
718.000000	38.546424
717.000000	15.212734
716.000000	93.464813
715.000000	19.884378
714.000000	61.366517
713.000000	85.414706
712.000000	7.233965
711.000000	99.408004
710.000000	63.380133
709.000000	61.265219
708.000000	91.903131
707.000000	39.551242
706.000000	8.301099
705.000000	77.281095
704.000000	47.617226
703.000000	2.928232
702.000000	88.257105
701.000000	41.359210
700.000000	4.504441
699.000000	54.881278
698.000000	18.766541
697.000000	18.872249
696.000000	26.534390
695.000000	56.355498
694.000000	59.369360
693.000000	49.202593
692.000000	86.646452
691.000000	73.334479
690.000000	54.822300
689.000000	0.860578
688.000000	46.175676
687.000000	89.725229
686.000000	31.734716
685.000000	30.826412
684.000000	15.089070
683.000000	36.343858
682.000000	93.110334
681.000000	61.565936
680.000000	0.215761
679.000000	16.419498
678.000000	41.287712
677.000000	44.962177
676.000000	70.908498
675.000000	16.007048
674.000000	60.673596
673.000000	81.105632
672.000000	79.725076
671.000000	58.332744
670.000000	87.213046
669.000000	43.556161
668.000000	92.761381
667.000000	73.805232
666.000000	97.127328
665.000000	98.346055
664.000000	59.570061
663.000000	72.987661
662.000000	44.631371
661.000000	58.818408
660.000000	47.097838
659.000000	34.022234
658.000000	28.981434
657.000000	42.947031
656.000000	53.897421
655.000000	80.002653
654.000000	24.391945
653.000000	83.422407
652.000000	48.198069
651.000000	45.471738
650.000000	65.991556
649.000000	52.585418
648.000000	76.111374
647.000000	68.221072
646.000000	50.435779
645.000000	0.877483
644.000000	11.176841
643.000000	73.325627
642.000000	9.379716
641.000000	92.601591
640.000000	64.759651
639.000000	77.768672
638.000000	6.040173
637.000000	20.707917
636.000000	39.089485
635.000000	17.458596
634.000000	60.995247
633.000000	74.223722
632.000000	30.919444
631.000000	81.876173
630.000000	67.857589
629.000000	25.383375
628.000000	59.363870
627.000000	32.844623
626.000000	23.229220
625.000000	47.384459
624.000000	24.553951
623.000000	67.478142
622.000000	87.336924
621.000000	21.165378
620.000000	95.470101
619.000000	18.188760
618.000000	39.301934
617.000000	28.870443
616.000000	94.449308
615.000000	20.208915
614.000000	53.349826
613.000000	18.442289
612.000000	90.194654
611.000000	40.013710
610.000000	53.503337
609.000000	42.328020
608.000000	47.130066
607.000000	5.846158
606.000000	47.221297
605.000000	4.857773
604.000000	67.731753
603.000000	86.740348
602.000000	91.963499
601.000000	16.806956
600.000000	10.360340
599.000000	51.047756
598.000000	12.451007
597.000000	92.574596
596.000000	87.734501
595.000000	14.473086
594.000000	60.904929
593.000000	48.113795
592.000000	89.018439
591.000000	8.303817
590.000000	84.119124
589.000000	82.142366
588.000000	60.603291
587.000000	82.847358
586.000000	75.505894
585.000000	76.074002
584.000000	2.259515
583.000000	85.581524
582.000000	46.234547
581.000000	1.709210
580.000000	35.618458
579.000000	22.292842
578.000000	33.452271
577.000000	3.716349
576.000000	6.184012
575.000000	59.855931
574.000000	25.237313
573.000000	71.699895
572.000000	64.504715
571.000000	6.718959
570.000000	9.384951
569.000000	68.988433
568.000000	89.120793
567.000000	47.803540
566.000000	93.082462
565.000000	60.544025
564.000000	91.232712
563.000000	92.426848
562.000000	44.040941
561.000000	33.413575
560.000000	18.538542
559.000000	73.029085
558.000000	37.848741
557.000000	9.088292
556.000000	41.686083
555.000000	60.405473
554.000000	23.743946
553.000000	76.650393
552.000000	35.651854
551.000000	45.669926
550.000000	9.075503
549.000000	93.718678
548.000000	12.577968
547.000000	39.510961
546.000000	44.028368
545.000000	46.916842
544.000000	95.751570
543.000000	81.193486
542.000000	17.311372
541.000000	7.428699
540.000000	99.198716
539.000000	83.208919
538.000000	66.416002
537.000000	64.231112
536.000000	31.755784
535.000000	73.612801
534.000000	14.072061
533.000000	46.899335
532.000000	81.850166
531.000000	54.958734
530.000000	85.754894
529.000000	4.970768
528.000000	28.383212
527.000000	12.630890
526.000000	86.712806
525.000000	74.395439
524.000000	1.527846
523.000000	63.847471
522.000000	96.502798
521.000000	66.797662
520.000000	55.957407
519.000000	30.256731
518.000000	8.520391
517.000000	62.453710
516.000000	80.509736
515.000000	31.832834
514.000000	3.132438
513.000000	65.422591
512.000000	22.881809
511.000000	51.617077
510.000000	11.755139
509.000000	34.968649
508.000000	5.149101
507.000000	84.845339
506.000000	82.155947
505.000000	56.632807
504.000000	56.919877
503.000000	78.921069
502.000000	63.330086
501.000000	38.359059
500.000000	38.828348
499.000000	46.950459
498.000000	13.490368
497.000000	25.252593
496.000000	25.577011
495.000000	90.352440
494.000000	60.596563
493.000000	69.718777
492.000000	30.260002
491.000000	90.187938
490.000000	72.131605
489.000000	55.278924
488.000000	27.178548
487.000000	76.627162
486.000000	82.160968
485.000000	87.777889
484.000000	78.913776
483.000000	55.738551
482.000000	76.396528
481.000000	31.219216
480.000000	44.212052
479.000000	62.712127
478.000000	31.291713
477.000000	50.091156
476.000000	67.704998
475.000000	50.664198
474.000000	54.931213
473.000000	11.978922
472.000000	84.440044
471.000000	63.677986
470.000000	5.235236
469.000000	22.930768
468.000000	94.784148
467.000000	82.333024
466.000000	37.077547
465.000000	33.308023
464.000000	86.007340
463.000000	94.215809
462.000000	45.071718
461.000000	64.293402
460.000000	15.376970
459.000000	35.409083
458.000000	45.895715
457.000000	52.165116
456.000000	28.091625
455.000000	94.504270
454.000000	93.707395
453.000000	18.514127
452.000000	30.135346
451.000000	87.090229
450.000000	19.048018
449.000000	78.152834
448.000000	88.714397
447.000000	40.452005
446.000000	42.698687
445.000000	5.919804
444.000000	63.324380
443.000000	32.501378
442.000000	90.027172
441.000000	31.149956
440.000000	7.005967
439.000000	17.679218
438.000000	17.290299
437.000000	27.471297
436.000000	48.810364
435.000000	91.500561
434.000000	79.748096
433.000000	69.757694
432.000000	85.836829
431.000000	18.482659
430.000000	62.626475
429.000000	68.231756
428.000000	18.677758
427.000000	36.089927
426.000000	72.977933
425.000000	92.162265
424.000000	89.888122
423.000000	39.762368
422.000000	43.812007
421.000000	44.239429
420.000000	46.312686
419.000000	76.575337
418.000000	55.555230
417.000000	41.564965
416.000000	53.699570
415.000000	56.270710
414.000000	18.878999
413.000000	1.636532
412.000000	34.926714
411.000000	8.577715
410.000000	87.020490
409.000000	53.579545
408.000000	94.158604
407.000000	31.851385
406.000000	24.463876
405.000000	67.974364
404.000000	50.786296
403.000000	63.178838
402.000000	73.339193
401.000000	58.696932
400.000000	66.010392
