Dividing Wavelength (nm)	Power (W)	
400.000000	64.703326
401.000000	38.785747
402.000000	85.462044
403.000000	94.391880
404.000000	10.136762
405.000000	95.217382
406.000000	6.712332
407.000000	97.645406
408.000000	93.831498
409.000000	15.899142
410.000000	5.879222
411.000000	57.068469
412.000000	82.545536
413.000000	32.448245
414.000000	15.169670
415.000000	37.519943
416.000000	55.008856
417.000000	51.536662
418.000000	68.045431
419.000000	87.532486
420.000000	96.757012
421.000000	90.616399
422.000000	99.959379
423.000000	58.264506
424.000000	71.888570
425.000000	94.352228
426.000000	55.574460
427.000000	68.678033
428.000000	44.673227
429.000000	65.837859
430.000000	63.662772
431.000000	53.423003
432.000000	8.177961
433.000000	27.036680
434.000000	36.317785
435.000000	50.497066
436.000000	17.263809
437.000000	29.574937
438.000000	4.935832
439.000000	93.343612
440.000000	72.934129
441.000000	84.456468
442.000000	94.605370
443.000000	4.915662
444.000000	69.196782
445.000000	22.874882
446.000000	61.936048
447.000000	21.682659
448.000000	93.561092
449.000000	65.996804
450.000000	53.969866
451.000000	16.678742
452.000000	73.200972
453.000000	49.481078
454.000000	23.273773
455.000000	47.617377
456.000000	77.376474
457.000000	97.115109
458.000000	91.757755
459.000000	3.543244
460.000000	73.015036
461.000000	82.427581
462.000000	20.226137
463.000000	65.502857
464.000000	26.684139
465.000000	39.527522
466.000000	97.718992
467.000000	59.742338
468.000000	33.915233
469.000000	51.637171
470.000000	56.266098
471.000000	68.422938
472.000000	46.639574
473.000000	71.179920
474.000000	26.027160
475.000000	44.242516
476.000000	86.678833
477.000000	65.984560
478.000000	59.857043
479.000000	43.215661
480.000000	31.446177
481.000000	77.565343
482.000000	4.425777
483.000000	25.432224
484.000000	26.818379
485.000000	56.393130
486.000000	3.246696
487.000000	12.692862
488.000000	10.530801
489.000000	69.570746
490.000000	22.770448
491.000000	23.053428
492.000000	70.914012
493.000000	34.828428
494.000000	9.749474
495.000000	77.380454
496.000000	83.543120
497.000000	50.398479
498.000000	48.634478
499.000000	36.105041
500.000000	21.490343
501.000000	54.725053
502.000000	48.315470
503.000000	70.567478
504.000000	26.378620
505.000000	94.127621
506.000000	13.376840
507.000000	56.312432
508.000000	16.394528
509.000000	7.173821
510.000000	30.259962
511.000000	17.982521
512.000000	53.447862
513.000000	78.678825
514.000000	32.692759
515.000000	55.131176
516.000000	80.262754
517.000000	58.216345
518.000000	40.122281
519.000000	9.654551
520.000000	97.743754
521.000000	33.562933
522.000000	82.744510
523.000000	20.350764
524.000000	35.897329
525.000000	64.320787
526.000000	46.331513
527.000000	98.928299
528.000000	66.789972
529.000000	91.527229
530.000000	53.228444
531.000000	84.232771
532.000000	10.891028
533.000000	68.091681
534.000000	70.308988
535.000000	6.084257
536.000000	5.758543
537.000000	84.835395
538.000000	99.780570
539.000000	4.478139
540.000000	16.975475
541.000000	16.032969
542.000000	74.615012
543.000000	86.584457
544.000000	26.884138
545.000000	72.665447
546.000000	96.596919
547.000000	59.651319
548.000000	65.468287
549.000000	11.466449
550.000000	56.199522
551.000000	25.126924
552.000000	61.363278
553.000000	55.286606
554.000000	79.888580
555.000000	76.171585
556.000000	32.519266
557.000000	51.742436
558.000000	60.968478
559.000000	57.425368
560.000000	34.118792
561.000000	63.159684
562.000000	67.572561
563.000000	93.540175
564.000000	30.940143
565.000000	49.731157
566.000000	97.007911
567.000000	99.507259
568.000000	91.788406
569.000000	46.035164
570.000000	27.900553
571.000000	19.264800
572.000000	49.883550
573.000000	25.526738
574.000000	79.572617
575.000000	9.264872
576.000000	92.968307
577.000000	29.535531
578.000000	17.017146
579.000000	67.497352
580.000000	85.043218
581.000000	35.289934
582.000000	2.392045
583.000000	12.760403
584.000000	92.739287
585.000000	25.569332
586.000000	66.337431
587.000000	84.001900
588.000000	22.238964
589.000000	2.045045
590.000000	60.771517
591.000000	90.930779
592.000000	56.632212
593.000000	39.041594
594.000000	70.577454
595.000000	22.352646
596.000000	4.913026
597.000000	96.279909
598.000000	36.307389
599.000000	85.080290
600.000000	83.603975
601.000000	74.673619
602.000000	51.038161
603.000000	81.565887
604.000000	55.141885
605.000000	13.066477
606.000000	42.718445
607.000000	27.590594
608.000000	13.274787
609.000000	40.007373
610.000000	4.604002
611.000000	99.909764
612.000000	48.802245
613.000000	42.990413
614.000000	39.028331
615.000000	95.997533
616.000000	86.959940
617.000000	31.253709
618.000000	38.769664
619.000000	31.179773
620.000000	38.736219
621.000000	89.062173
622.000000	84.671363
623.000000	69.234228
624.000000	5.072274
625.000000	40.944139
626.000000	63.998104
627.000000	4.190228
628.000000	38.968589
629.000000	95.263559
630.000000	75.997008
631.000000	79.583548
632.000000	19.925812
633.000000	72.423678
634.000000	44.033474
635.000000	94.431190
636.000000	25.022629
637.000000	73.166256
638.000000	24.081238
639.000000	10.258824
640.000000	12.596231
641.000000	91.418632
642.000000	63.228880
643.000000	69.340289
644.000000	23.118010
645.000000	17.534957
646.000000	56.599005
647.000000	10.639112
648.000000	67.559469
649.000000	62.510769
650.000000	3.144690
651.000000	90.951834
652.000000	45.963922
653.000000	80.212717
654.000000	12.174366
655.000000	72.444664
656.000000	96.725175
657.000000	46.057392
658.000000	21.103360
659.000000	21.663930
660.000000	84.989928
661.000000	39.370894
662.000000	26.286711
663.000000	31.261301
664.000000	57.242012
665.000000	68.185407
666.000000	53.132521
667.000000	45.392167
668.000000	56.703307
669.000000	29.787264
670.000000	2.268753
671.000000	69.549609
672.000000	68.838900
673.000000	38.647909
674.000000	67.858985
675.000000	92.070187
676.000000	96.928823
677.000000	85.128347
678.000000	97.400792
679.000000	29.032510
680.000000	40.455450
681.000000	20.536662
682.000000	13.016390
683.000000	27.904483
684.000000	20.726534
685.000000	65.047621
686.000000	27.249088
687.000000	70.539672
688.000000	48.889755
689.000000	26.871906
690.000000	58.997650
691.000000	38.072227
692.000000	46.424154
693.000000	52.287816
694.000000	63.241840
695.000000	80.159473
696.000000	93.778122
697.000000	90.800784
698.000000	50.134718
699.000000	56.364911
700.000000	49.232470
701.000000	7.594921
702.000000	36.322058
703.000000	8.844230
704.000000	2.062443
705.000000	69.736089
706.000000	57.244720
707.000000	75.094050
708.000000	36.026101
709.000000	72.726832
710.000000	79.529797
711.000000	2.094654
712.000000	31.952723
713.000000	8.195291
714.000000	3.166602
715.000000	8.623067
716.000000	25.944634
717.000000	12.905695
718.000000	86.110670
719.000000	69.883497
720.000000	41.880268
721.000000	58.223062
722.000000	26.156733
723.000000	88.665536
724.000000	2.606743
725.000000	29.286784
726.000000	82.842186
727.000000	22.748604
728.000000	80.863773
729.000000	75.436085
730.000000	94.526018
731.000000	85.789469
732.000000	40.929154
733.000000	45.421322
734.000000	91.815872
735.000000	60.946419
736.000000	19.000446
737.000000	37.609861
738.000000	70.185346
739.000000	81.661880
740.000000	3.869481
741.000000	78.639066
742.000000	69.027943
743.000000	95.424148
744.000000	56.932442
745.000000	86.910716
746.000000	12.437117
747.000000	86.499317
748.000000	20.303273
749.000000	5.954028
750.000000	57.259782
751.000000	50.482465
752.000000	31.197257
753.000000	82.054737
754.000000	51.311031
755.000000	49.810139
756.000000	15.965029
757.000000	54.911918
758.000000	71.548018
759.000000	3.594845
760.000000	95.234983
761.000000	60.716094
762.000000	12.590185
763.000000	48.389485
764.000000	88.114801
765.000000	8.925569
766.000000	30.762414
767.000000	42.691743
768.000000	64.016963
769.000000	37.453250
770.000000	38.874104
771.000000	46.240952
772.000000	57.823166
773.000000	88.127479
774.000000	57.491711
775.000000	15.053111
776.000000	53.804211
777.000000	67.687365
778.000000	69.659031
779.000000	71.337807
780.000000	97.116385
781.000000	65.492693
782.000000	41.182968
783.000000	85.272099
784.000000	79.215628
785.000000	84.667619
786.000000	84.605776
787.000000	96.442930
788.000000	69.440859
789.000000	19.534047
790.000000	39.958522
791.000000	5.996675
792.000000	49.376145
793.000000	98.257665
794.000000	47.860079
795.000000	91.974086
796.000000	54.362233
797.000000	46.141897
798.000000	13.848960
799.000000	84.157050
800.000000	46.731201
801.000000	4.400450
802.000000	20.509955
803.000000	81.003118
804.000000	5.714790
805.000000	69.470857
806.000000	54.101190
807.000000	9.253322
808.000000	47.702521
809.000000	66.891996
810.000000	33.101290
811.000000	92.707396
812.000000	4.509624
813.000000	8.193400
814.000000	99.167393
815.000000	29.396495
816.000000	47.183243
817.000000	15.939232
818.000000	20.151594
819.000000	21.274896
820.000000	73.999998
821.000000	61.329332
822.000000	65.756781
823.000000	50.212503
824.000000	55.922502
825.000000	80.694681
826.000000	87.830950
827.000000	2.957463
828.000000	42.641814
829.000000	3.789728
830.000000	53.999906
831.000000	35.921574
832.000000	41.140323
833.000000	84.599955
834.000000	95.104729
835.000000	70.545329
836.000000	69.909072
837.000000	34.614812
838.000000	58.897626
839.000000	92.181500
840.000000	17.823143
841.000000	85.755031
842.000000	98.994526
843.000000	7.612232
844.000000	92.960224
845.000000	16.506226
846.000000	74.555218
847.000000	26.044246
848.000000	18.533886
849.000000	28.486934
850.000000	57.755473
851.000000	70.745038
852.000000	74.764129
853.000000	31.864491
854.000000	9.806409
855.000000	49.463670
856.000000	66.293656
857.000000	93.258118
858.000000	58.287331
859.000000	46.651580
860.000000	73.631932
861.000000	88.342860
862.000000	44.404001
863.000000	71.129490
864.000000	14.544703
865.000000	20.176492
866.000000	57.614526
867.000000	32.884329
868.000000	72.958745
869.000000	83.876422
870.000000	2.890358
871.000000	17.286359
872.000000	84.032587
873.000000	18.371421
874.000000	3.700633
875.000000	19.358046
876.000000	42.369827
877.000000	22.480761
878.000000	70.272254
879.000000	19.656261
880.000000	66.542765
881.000000	31.672706
882.000000	73.324617
883.000000	10.565357
884.000000	37.211388
885.000000	94.276223
886.000000	15.966539
887.000000	18.897978
888.000000	62.028381
889.000000	83.613270
890.000000	84.219085
891.000000	67.328988
892.000000	65.377706
893.000000	97.365333
894.000000	18.247409
895.000000	22.204496
896.000000	49.365622
897.000000	77.716000
898.000000	83.979034
899.000000	61.426573
900.000000	10.564683
