Dividing Wavelength (nm)	Counts (n)	Blue Motor Position (mm): 24.000000	Red Motor Position (mm): 0.000000	
326.493990	1.001597
326.888308	1.001597
327.282561	1.001597
327.676750	1.001516
328.070874	1.001273
328.464933	1.002227
328.858929	1.001890
329.252859	1.001711
329.646726	1.000967
330.040528	1.002191
330.434265	1.002290
330.827938	1.000939
331.221547	1.001972
331.615091	1.001180
332.008571	1.001609
332.401986	1.001889
332.795338	1.001444
333.188625	1.002636
333.581847	1.001518
333.975006	1.002233
334.368100	1.001368
334.761129	0.999196
335.154095	1.001716
335.546996	1.000842
335.939833	0.999161
336.332606	1.000173
336.725315	0.999286
337.117960	1.000360
337.510540	0.998405
337.903056	1.000396
338.295508	1.000776
338.687896	1.000934
339.080220	0.999693
339.472480	1.000676
339.864676	1.000136
340.256807	0.998980
340.648875	1.000705
341.040879	0.998944
341.432818	1.000926
341.824694	0.998990
342.216506	1.000137
342.608253	0.999969
342.999937	0.999186
343.391557	1.000255
343.783113	1.000811
344.174605	0.999802
344.566033	0.998490
344.957397	1.000900
345.348697	0.999275
345.739934	0.999999
346.131106	0.999851
346.522215	0.999413
346.913260	1.000477
347.304241	0.998663
347.695159	0.999447
348.086012	0.999048
348.476802	0.999328
348.867528	0.997813
349.258191	1.000135
349.648789	0.999585
350.039324	0.998974
350.429796	0.998819
350.820203	0.997896
351.210548	0.999267
351.600828	0.998206
351.991045	0.999682
352.381198	0.999027
352.771288	0.998316
353.161314	0.999429
353.551276	0.999512
353.941175	0.997979
354.331010	1.000037
354.720782	0.999344
355.110490	0.998380
355.500135	0.999862
355.889717	0.997593
356.279235	0.999200
356.668689	0.998962
357.058080	0.997749
357.447408	0.998069
357.836672	0.998388
358.225873	0.998467
358.615010	0.997974
359.004084	0.998313
359.393095	0.998750
359.782043	0.997738
360.170927	0.998549
360.559748	0.998187
360.948505	0.997913
361.337199	0.997629
361.725830	0.999051
362.114398	0.997974
362.502903	0.996565
362.891344	0.996703
363.279722	0.997164
363.668037	0.998035
364.056289	0.997422
364.444478	0.998292
364.832603	0.997819
365.220665	0.997433
365.608665	0.996925
365.996601	0.997919
366.384474	0.996104
366.772284	0.997445
367.160031	0.995194
367.547715	0.996506
367.935336	0.995438
368.322893	0.993997
368.710388	0.993865
369.097820	0.992149
369.485189	0.989002
369.872495	0.987388
370.259738	0.983696
370.646918	0.982872
371.034035	0.980138
371.421090	0.976917
371.808081	0.971071
372.195010	0.970109
372.581875	0.963688
372.968678	0.960079
373.355418	0.956619
373.742096	0.948616
374.128710	0.945211
374.515262	0.939640
374.901751	0.934116
375.288177	0.929546
375.674540	0.923063
376.060841	0.916273
376.447079	0.909950
376.833254	0.903845
377.219367	0.899232
377.605417	0.886897
377.991404	0.883498
378.377329	0.876912
378.763191	0.870120
379.148991	0.861719
379.534727	0.853005
379.920402	0.844932
380.306013	0.842791
380.691563	0.829081
381.077049	0.822854
381.462474	0.819476
381.847835	0.808354
382.233134	0.802870
382.618371	0.802878
383.003545	0.785944
383.388657	0.784330
383.773706	0.775802
384.158693	0.772781
384.543618	0.766813
384.928480	0.757886
385.313280	0.748173
385.698017	0.747806
386.082692	0.735953
386.467305	0.734163
386.851856	0.728946
387.236344	0.723984
387.620770	0.718152
388.005133	0.712408
388.389435	0.706758
388.773674	0.704665
389.157851	0.696992
389.541965	0.694207
389.926018	0.699300
390.310008	0.686764
390.693936	0.684214
391.077802	0.676204
391.461606	0.677058
391.845348	0.667140
392.229027	0.666982
392.612645	0.664677
392.996200	0.651758
393.379694	0.644500
393.763125	0.635299
394.146494	0.639408
394.529801	0.629447
394.913047	0.622285
395.296230	0.627936
395.679351	0.618955
396.062410	0.616022
396.445408	0.618974
396.828343	0.613752
397.211217	0.608771
397.594028	0.620911
397.976778	0.611492
398.359466	0.608130
398.742092	0.604175
399.124656	0.615221
399.507158	0.603488
399.889598	0.600603
400.271977	0.591565
400.654294	0.596617
401.036549	0.594811
401.418742	0.599001
401.800874	0.585285
402.182944	0.581985
402.564952	0.573905
402.946898	0.575490
403.328783	0.576536
403.710606	0.587583
404.092367	0.562516
404.474067	0.567811
404.855705	0.566393
405.237282	0.575820
405.618797	0.561421
406.000250	0.557483
406.381642	0.547042
406.762972	0.552681
407.144240	0.550730
407.525447	0.550933
407.906593	0.543452
408.287677	0.539005
408.668700	0.547549
409.049661	0.541386
409.430560	0.536879
409.811399	0.544773
410.192176	0.526956
410.572891	0.534634
410.953545	0.521984
411.334138	0.535786
411.714669	0.528379
412.095139	0.540397
412.475547	0.524319
412.855894	0.526193
413.236180	0.525036
413.616405	0.530532
413.996568	0.521143
414.376670	0.527791
414.756711	0.532286
415.136691	0.529372
415.516609	0.519988
415.896466	0.516403
416.276262	0.512952
416.655997	0.515249
417.035670	0.495848
417.415283	0.488202
417.794834	0.493056
418.174324	0.498404
418.553753	0.506692
418.933121	0.489143
419.312428	0.483558
419.691674	0.488996
420.070859	0.476963
420.449983	0.485398
420.829045	0.474543
421.208047	0.483678
421.586988	0.476285
421.965867	0.475777
422.344686	0.463983
422.723444	0.476919
423.102141	0.494122
423.480777	0.466741
423.859352	0.487719
424.237866	0.464801
424.616319	0.465277
424.994712	0.455958
425.373044	0.466668
425.751314	0.454848
426.129524	0.471189
426.507673	0.454218
426.885762	0.447911
427.263789	0.453932
427.641756	0.463025
428.019662	0.453909
428.397508	0.453045
428.775292	0.457216
429.153016	0.449274
429.530679	0.455319
429.908282	0.448513
430.285824	0.459036
430.663305	0.437051
431.040726	0.458990
431.418086	0.458320
431.795385	0.449747
432.172624	0.449095
432.549802	0.449465
432.926920	0.448291
433.303977	0.447455
433.680974	0.444913
434.057910	0.443727
434.434786	0.442836
434.811601	0.445103
435.188355	0.427611
435.565050	0.437366
435.941683	0.438579
436.318257	0.422581
436.694770	0.423300
437.071222	0.421554
437.447614	0.425807
437.823946	0.432600
438.200218	0.421749
438.576429	0.431199
438.952580	0.424667
439.328670	0.421249
439.704700	0.427828
440.080670	0.428913
440.456580	0.410121
440.832429	0.418504
441.208218	0.429423
441.583947	0.418470
441.959616	0.417638
442.335224	0.423603
442.710773	0.413433
443.086261	0.412338
443.461689	0.425603
443.837057	0.415630
444.212365	0.405459
444.587612	0.413635
444.962800	0.403070
445.337927	0.404031
445.712995	0.430831
446.088002	0.392437
446.462949	0.402765
446.837837	0.407960
447.212664	0.396334
447.587431	0.387800
447.962139	0.358476
448.336786	0.317339
448.711374	0.327794
449.085901	0.372129
449.460369	0.376748
449.834776	0.380274
450.209124	0.359819
450.583412	0.352350
450.957640	0.345065
451.331808	0.356754
451.705917	0.380270
452.079965	0.385033
452.453954	0.372740
452.827883	0.379889
453.201752	0.375081
453.575562	0.385866
453.949311	0.374832
454.323001	0.381566
454.696632	0.377175
455.070202	0.369983
455.443713	0.362119
455.817164	0.356678
456.190556	0.353026
456.563888	0.349799
456.937160	0.347332
457.310373	0.365330
457.683526	0.364928
458.056619	0.371090
458.429653	0.371434
458.802628	0.375362
459.175542	0.370245
459.548398	0.353298
459.921194	0.346681
460.293930	0.347308
460.666607	0.326281
461.039224	0.315372
461.411782	0.311240
461.784280	0.311431
462.156719	0.316316
462.529099	0.321250
462.901419	0.337847
463.273680	0.343066
463.645882	0.343555
464.018024	0.350803
464.390106	0.344749
464.762130	0.330831
465.134094	0.316091
465.505999	0.288520
465.877845	0.261998
466.249631	0.249961
466.621358	0.258190
466.993026	0.272913
467.364634	0.280310
467.736184	0.290661
468.107674	0.301235
468.479105	0.302804
468.850477	0.310844
469.221790	0.319333
469.593043	0.331182
469.964238	0.337956
470.335373	0.340243
470.706449	0.340898
471.077467	0.344441
471.448425	0.312730
471.819324	0.293217
472.190164	0.294830
472.560945	0.324289
472.931667	0.348210
473.302330	0.355339
473.672934	0.369879
474.043479	0.362563
474.413965	0.367676
474.784393	0.375158
475.154761	0.374364
475.525070	0.375812
475.895321	0.385132
476.265513	0.384031
476.635645	0.383741
477.005719	0.389192
477.375734	0.390858
477.745691	0.389928
478.115588	0.392166
478.485427	0.391939
478.855207	0.386997
479.224928	0.379824
479.594591	0.375565
479.964194	0.383449
480.333739	0.388496
480.703226	0.396662
481.072653	0.400916
481.442022	0.406036
481.811333	0.408757
482.180584	0.417952
482.549777	0.428870
482.918912	0.437801
483.287988	0.444862
483.657005	0.450652
484.025964	0.462675
484.394864	0.467194
484.763706	0.475152
485.132489	0.484861
485.501213	0.492953
485.869879	0.497928
486.238487	0.508752
486.607036	0.513303
486.975527	0.525393
487.343959	0.528572
487.712333	0.536720
488.080648	0.544003
488.448905	0.551953
488.817104	0.560178
489.185244	0.564099
489.553326	0.571169
489.921350	0.572475
490.289315	0.568961
490.657222	0.572872
491.025070	0.582695
491.392861	0.591057
491.760593	0.601838
492.128267	0.614044
492.495883	0.624268
492.863440	0.634865
493.230939	0.646494
493.598380	0.654982
493.965763	0.664507
494.333088	0.671339
494.700354	0.680493
495.067563	0.685388
495.434713	0.696027
495.801805	0.701708
496.168839	0.709597
496.535815	0.718197
496.902733	0.723597
497.269593	0.732205
497.636395	0.737000
498.003139	0.745583
498.369825	0.752878
498.736453	0.758217
499.103023	0.764955
499.469535	0.771644
499.835989	0.777847
500.202385	0.785074
500.568723	0.791850
500.935003	0.796085
501.301226	0.805026
501.667390	0.807205
502.033497	0.812993
502.399546	0.819265
502.765537	0.826240
503.131470	0.831480
503.497345	0.835967
503.863163	0.842942
504.228923	0.847507
504.594625	0.851020
504.960269	0.858342
505.325856	0.862752
505.691385	0.867845
506.056856	0.871768
506.422270	0.876262
506.787625	0.880134
507.152924	0.885087
507.518164	0.888186
507.883347	0.893375
508.248472	0.897165
508.613540	0.900349
508.978550	0.905049
509.343503	0.908468
509.708398	0.912235
510.073236	0.914530
510.438016	0.918078
510.802738	0.921717
511.167403	0.924452
511.532010	0.929225
511.896561	0.929900
512.261053	0.933065
512.625488	0.936466
512.989866	0.938675
513.354186	0.941203
513.718449	0.945168
514.082655	0.946266
514.446803	0.948709
514.810894	0.951166
515.174927	0.953431
515.538904	0.955324
515.902822	0.957158
516.266684	0.959244
516.630488	0.961166
516.994235	0.963241
517.357925	0.964759
517.721558	0.966702
518.085133	0.967741
518.448651	0.968936
518.812112	0.971072
519.175516	0.971645
519.538863	0.972694
519.902152	0.974546
520.265385	0.975343
520.628560	0.976039
520.991678	0.977643
521.354739	0.978606
521.717743	0.979552
522.080690	0.980028
522.443580	0.981202
522.806413	0.981009
523.169189	0.982884
523.531908	0.982519
523.894569	0.983488
524.257174	0.983980
524.619722	0.984349
524.982213	0.984898
525.344647	0.986061
525.707025	0.985511
526.069345	0.986397
526.431608	0.987748
526.793815	0.988292
527.155964	0.988740
527.518057	0.989212
527.880093	0.988568
528.242072	0.988901
528.603995	0.988753
528.965860	0.990419
529.327669	0.990025
529.689421	0.989707
530.051117	0.990632
530.412755	0.991643
530.774337	0.990790
531.135862	0.991567
531.497331	0.990873
531.858743	0.991613
532.220098	0.991125
532.581396	0.992030
532.942638	0.991697
533.303824	0.992248
533.664953	0.991982
534.026025	0.992640
534.387040	0.992527
534.747999	0.991984
535.108902	0.992048
535.469748	0.993209
535.830537	0.993009
536.191270	0.992816
536.551947	0.992594
536.912567	0.992672
537.273131	0.993659
537.633638	0.993134
537.994089	0.993694
538.354483	0.993227
538.714821	0.993696
539.075103	0.993047
539.435328	0.993429
539.795497	0.994045
540.155609	0.993870
540.515665	0.994306
540.875665	0.993275
541.235609	0.994532
541.595496	0.993341
541.955328	0.993638
542.315102	0.994593
542.674821	0.993969
543.034483	0.994546
543.394090	0.993772
543.753640	0.994464
544.113134	0.993376
544.472571	0.994174
544.831953	0.994534
545.191278	0.994362
545.550548	0.993607
545.909761	0.994308
546.268918	0.995233
546.628019	0.994593
546.987064	0.993907
547.346053	0.993870
547.704986	0.993866
548.063863	0.994130
548.422684	0.994421
548.781449	0.994250
549.140158	0.994414
549.498811	0.993533
549.857408	0.993943
550.215949	0.993765
550.574434	0.993749
550.932864	0.995081
551.291237	0.994106
551.649555	0.994875
552.007817	0.994488
552.366022	0.994686
552.724173	0.994584
553.082267	0.993909
553.440305	0.994125
553.798288	0.993584
554.156215	0.994334
554.514086	0.994252
554.871902	0.994502
555.229661	0.994152
555.587365	0.994844
555.945014	0.995071
556.302606	0.993802
556.660143	0.994756
557.017625	0.994942
557.375050	0.994426
557.732421	0.994737
558.089735	0.993988
558.446994	0.994688
558.804197	0.994270
559.161345	0.994295
559.518437	0.994338
559.875474	0.995102
560.232455	0.994894
560.589381	0.995152
560.946251	0.994623
561.303065	0.994610
561.659825	0.994487
562.016528	0.994853
562.373177	0.994615
562.729770	0.994384
563.086307	0.993506
563.442789	0.994366
563.799216	0.994033
564.155587	0.995014
564.511904	0.994937
564.868164	0.994306
565.224370	0.994375
565.580520	0.994728
565.936615	0.994617
566.292654	0.994162
566.648638	0.994754
567.004567	0.994144
567.360441	0.994855
567.716260	0.993946
568.072023	0.994075
568.427732	0.994919
568.783385	0.994675
569.138982	0.994615
569.494525	0.994529
569.850013	0.995386
570.205445	0.994533
570.560823	0.994635
570.916145	0.994656
571.271412	0.995040
571.626625	0.995384
571.981782	0.994617
572.336884	0.994830
572.691931	0.994735
573.046923	0.995258
573.401860	0.994784
573.756743	0.995389
574.111570	0.994516
574.466342	0.995487
574.821059	0.994651
575.175722	0.995059
575.530330	0.994550
575.884882	0.993958
576.239380	0.994787
576.593823	0.994428
576.948211	0.994991
577.302544	0.994609
577.656823	0.995057
578.011047	0.993910
578.365216	0.995380
578.719330	0.995081
579.073389	0.994137
579.427394	0.994620
579.781344	0.994983
580.135239	0.994334
580.489080	0.994677
580.842866	0.994799
581.196597	0.994390
581.550273	0.994111
581.903895	0.994988
582.257463	0.994504
582.610975	0.994269
582.964434	0.994425
583.317837	0.995156
583.671186	0.994760
584.024481	0.994027
584.377721	0.994074
584.730906	0.994837
585.084037	0.995601
585.437113	0.995522
585.790135	0.994257
586.143103	0.994136
586.496016	0.994645
586.848874	0.994785
587.201679	0.994526
587.554428	0.994238
587.907124	0.995102
588.259765	0.995489
588.612352	0.995366
588.964884	0.994757
589.317362	0.994648
589.669786	0.994409
590.022155	0.994369
590.374470	0.994359
590.726731	0.994459
591.078937	0.994560
591.431090	0.994634
591.783188	0.994449
592.135232	0.995914
592.487222	0.994624
592.839157	0.994701
593.191038	0.994271
593.542866	0.994517
593.894639	0.993670
594.246358	0.994858
594.598022	0.994903
594.949633	0.995522
595.301190	0.994403
595.652692	0.994325
596.004141	0.993747
596.355535	0.994311
596.706876	0.995148
597.058162	0.994648
597.409395	0.995414
597.760573	0.994650
598.111698	0.994568
598.462768	0.994300
598.813785	0.994314
599.164748	0.994250
599.515657	0.994088
599.866511	0.995566
600.217312	0.995079
600.568060	0.994677
600.918753	0.994880
601.269392	0.994909
601.619978	0.994500
601.970510	0.994162
602.320988	0.995144
602.671412	0.994435
603.021783	0.994922
603.372100	0.995346
603.722363	0.994771
604.072572	0.994674
604.422728	0.995225
604.772830	0.993976
605.122878	0.995234
605.472872	0.995012
605.822813	0.994005
606.172701	0.993936
606.522534	0.994269
606.872314	0.995691
607.222041	0.994311
607.571714	0.995180
607.921333	0.994885
608.270899	0.994521
608.620411	0.994796
608.969870	0.995589
609.319276	0.994962
609.668627	0.994801
610.017926	0.994301
610.367171	0.994128
610.716362	0.994853
611.065500	0.995264
611.414585	0.994959
611.763616	0.993554
612.112594	0.994796
612.461518	0.993646
612.810389	0.994746
613.159207	0.994879
613.507971	0.994232
613.856682	0.995928
614.205340	0.993822
614.553945	0.994354
614.902496	0.994068
615.250994	0.994888
615.599439	0.994598
615.947830	0.993837
616.296169	0.994463
616.644454	0.994674
616.992686	0.994518
617.340864	0.995049
617.688990	0.994461
618.037063	0.994568
618.385082	0.994036
618.733048	0.993688
619.080961	0.994474
619.428821	0.995092
619.776628	0.994107
620.124382	0.994838
620.472083	0.995054
620.819731	0.995202
621.167326	0.994627
621.514868	0.994990
621.862357	0.995124
622.209793	0.994599
622.557176	0.993888
622.904506	0.994734
623.251783	0.995316
623.599007	0.995306
623.946179	0.994488
624.293297	0.994857
624.640363	0.994994
624.987376	0.994036
625.334336	0.994264
625.681243	0.994050
626.028097	0.995093
626.374899	0.994733
626.721647	0.995835
627.068343	0.994907
627.414987	0.994316
627.761577	0.994037
628.108115	0.993687
628.454600	0.995670
628.801032	0.994711
629.147412	0.994862
629.493739	0.995273
629.840014	0.994805
630.186236	0.994217
630.532405	0.994809
630.878521	0.993494
631.224585	0.994742
631.570597	0.994959
631.916556	0.995098
632.262462	0.993181
632.608316	0.994696
632.954117	0.993819
633.299866	0.994772
633.645562	0.994940
633.991206	0.994899
634.336797	0.994658
634.682336	0.996118
635.027823	0.994591
635.373257	0.994874
635.718639	0.995840
636.063968	0.994011
636.409245	0.994722
636.754470	0.994823
637.099642	0.994832
637.444762	0.995209
637.789829	0.994036
638.134845	0.994270
638.479808	0.995054
638.824719	0.995100
639.169577	0.994108
639.514383	0.994765
639.859137	0.995622
640.203839	0.995066
640.548489	0.994510
640.893086	0.994190
641.237632	0.995765
641.582125	0.994446
641.926566	0.995913
642.270955	0.994695
642.615292	0.994578
642.959576	0.995192
643.303809	0.995672
643.647990	0.994752
643.992118	0.995422
644.336195	0.994398
644.680219	0.994410
645.024192	0.995259
645.368112	0.994031
645.711981	0.995313
646.055797	0.995027
646.399562	0.994244
646.743274	0.995627
647.086935	0.994256
647.430544	0.994665
647.774101	0.993878
648.117606	0.994528
648.461059	0.995133
648.804460	0.993811
649.147810	0.994513
649.491108	0.994222
649.834354	0.994533
650.177548	0.994828
650.520690	0.994425
650.863781	0.994331
651.206820	0.994814
651.549807	0.993996
651.892742	0.995159
652.235626	0.995203
652.578458	0.994411
652.921238	0.995070
653.263967	0.995012
653.606644	0.994231
653.949269	0.995296
654.291843	0.994038
654.634365	0.995741
654.976836	0.994557
655.319255	0.995307
655.661622	0.994651
656.003938	0.994818
656.346203	0.994682
656.688416	0.996078
657.030577	0.994441
657.372687	0.995017
657.714746	0.994242
658.056753	0.994002
658.398708	0.994360
658.740612	0.995658
659.082465	0.994308
659.424266	0.994926
659.766016	0.993184
660.107715	0.995490
660.449362	0.994631
660.790958	0.994672
661.132503	0.994805
661.473996	0.994788
661.815438	0.995112
662.156829	0.994853
662.498168	0.995711
662.839456	0.994684
663.180693	0.995245
663.521879	0.993911
663.863013	0.995314
664.204097	0.994593
664.545129	0.994906
664.886110	0.995169
665.227040	0.995099
665.567918	0.994525
665.908746	0.994125
666.249522	0.994940
666.590248	0.994553
666.930922	0.994381
667.271545	0.995014
667.612118	0.993851
667.952639	0.994328
668.293109	0.994795
668.633528	0.994426
668.973896	0.994650
669.314213	0.994576
669.654480	0.995635
669.994695	0.994169
670.334859	0.994846
670.674973	0.994634
671.015035	0.994208
671.355047	0.994327
671.695008	0.994379
672.034918	0.994464
672.374777	0.995017
672.714585	0.994309
673.054342	0.995349
673.394049	0.994331
673.733705	0.994044
674.073310	0.994238
674.412864	0.994831
674.752368	0.995128
675.091820	0.994915
675.431223	0.994385
675.770574	0.993690
676.109875	0.994348
676.449125	0.994031
676.788324	0.993916
677.127473	0.995675
677.466571	0.994326
677.805619	0.994631
678.144616	0.994661
678.483562	0.995478
678.822458	0.995480
679.161303	0.993717
679.500098	0.994555
679.838842	0.994788
680.177535	0.994557
680.516179	0.994087
680.854771	0.995520
681.193314	0.993629
681.531805	0.995245
681.870247	0.994353
682.208638	0.994426
682.546978	0.993580
682.885268	0.994058
683.223508	0.994279
683.561697	0.993833
683.899836	0.993935
684.237925	0.994146
684.575963	0.994609
684.913951	0.993958
685.251889	0.994800
685.589776	0.994241
685.927614	0.994117
686.265401	0.994083
686.603137	0.994028
686.940824	0.993709
687.278460	0.994928
687.616046	0.994055
687.953582	0.994673
688.291068	0.993641
688.628504	0.993911
