Dividing Wavelength (nm)	Counts (n)	Blue Motor Position (mm): 47.900000	Red Motor Position (mm): 0.000000	
326.493990	1.000054
326.888308	1.000054
327.282561	1.000054
327.676750	1.001500
328.070874	1.000633
328.464933	1.000771
328.858929	1.001053
329.252859	1.000079
329.646726	0.999177
330.040528	0.999438
330.434265	1.001165
330.827938	0.998726
331.221547	0.999488
331.615091	0.999783
332.008571	1.001676
332.401986	0.999618
332.795338	1.000014
333.188625	1.000690
333.581847	0.999337
333.975006	1.000575
334.368100	0.999917
334.761129	0.998169
335.154095	0.999720
335.546996	0.999417
335.939833	0.998451
336.332606	1.000668
336.725315	0.999230
337.117960	1.000180
337.510540	0.998943
337.903056	0.999945
338.295508	1.001640
338.687896	1.000105
339.080220	1.000399
339.472480	0.999649
339.864676	1.000363
340.256807	0.999344
340.648875	1.001211
341.040879	0.999483
341.432818	1.001599
341.824694	0.999850
342.216506	1.000933
342.608253	1.000615
342.999937	0.998955
343.391557	1.000602
343.783113	1.001791
344.174605	1.000756
344.566033	0.999765
344.957397	1.000481
345.348697	1.000347
345.739934	0.999839
346.131106	0.999685
346.522215	0.999862
346.913260	1.000886
347.304241	1.000137
347.695159	0.999638
348.086012	1.000225
348.476802	1.001215
348.867528	0.999010
349.258191	1.001584
349.648789	1.000706
350.039324	1.000501
350.429796	0.998697
350.820203	0.999420
351.210548	1.000171
351.600828	1.000778
351.991045	0.999966
352.381198	1.000780
352.771288	0.999384
353.161314	1.000583
353.551276	1.000226
353.941175	0.997958
354.331010	1.001543
354.720782	1.000019
355.110490	0.999860
355.500135	1.000389
355.889717	0.998861
356.279235	0.999233
356.668689	1.001097
357.058080	0.998676
357.447408	0.999428
357.836672	0.999196
358.225873	0.999607
358.615010	0.999709
359.004084	0.999063
359.393095	1.000155
359.782043	0.999599
360.170927	1.001526
360.559748	1.000199
360.948505	0.999979
361.337199	1.000274
361.725830	1.000769
362.114398	1.000493
362.502903	0.998953
362.891344	0.998548
363.279722	0.999511
363.668037	1.001435
364.056289	1.000147
364.444478	1.000857
364.832603	0.999753
365.220665	0.999260
365.608665	0.999674
365.996601	0.999019
366.384474	0.998636
366.772284	0.998801
367.160031	0.999038
367.547715	0.997905
367.935336	0.997948
368.322893	0.997627
368.710388	0.996921
369.097820	0.994964
369.485189	0.993196
369.872495	0.993459
370.259738	0.990811
370.646918	0.989032
371.034035	0.987814
371.421090	0.987037
371.808081	0.983826
372.195010	0.982721
372.581875	0.980026
372.968678	0.978973
373.355418	0.978097
373.742096	0.975308
374.128710	0.974881
374.515262	0.974384
374.901751	0.972610
375.288177	0.972286
375.674540	0.972064
376.060841	0.971337
376.447079	0.969310
376.833254	0.969106
377.219367	0.970021
377.605417	0.967393
377.991404	0.968787
378.377329	0.968721
378.763191	0.968525
379.148991	0.968361
379.534727	0.969110
379.920402	0.969037
380.306013	0.970098
380.691563	0.970132
381.077049	0.971538
381.462474	0.973060
381.847835	0.972675
382.233134	0.974423
382.618371	0.978232
383.003545	0.977371
383.388657	0.978144
383.773706	0.979684
384.158693	0.982403
384.543618	0.985193
384.928480	0.984519
385.313280	0.985416
385.698017	0.987012
386.082692	0.987665
386.467305	0.987953
386.851856	0.991716
387.236344	0.991693
387.620770	0.993840
388.005133	0.993453
388.389435	0.993595
388.773674	0.994487
389.157851	0.995625
389.541965	0.996595
389.926018	0.997335
390.310008	0.997124
390.693936	0.998635
391.077802	0.998318
391.461606	0.998464
391.845348	0.999167
392.229027	0.998883
392.612645	0.999511
392.996200	0.999259
393.379694	0.999253
393.763125	1.000136
394.146494	0.999538
394.529801	0.999262
394.913047	0.998675
395.296230	0.999217
395.679351	1.000128
396.062410	1.000049
396.445408	0.999413
396.828343	1.001030
397.211217	1.000331
397.594028	0.999858
397.976778	1.000232
398.359466	0.999618
398.742092	1.001179
399.124656	1.000435
399.507158	0.998551
399.889598	1.000684
400.271977	0.999902
400.654294	1.000981
401.036549	1.001310
401.418742	1.000758
401.800874	1.000160
402.182944	0.998928
402.564952	0.999905
402.946898	1.000204
403.328783	1.000767
403.710606	0.999596
404.092367	1.000888
404.474067	1.001526
404.855705	1.000746
405.237282	0.999783
405.618797	1.000443
406.000250	0.999191
406.381642	0.999909
406.762972	1.001032
407.144240	1.000706
407.525447	0.999639
407.906593	1.000140
408.287677	1.000597
408.668700	1.000563
409.049661	1.000754
409.430560	0.999742
409.811399	0.999853
410.192176	1.000686
410.572891	1.000794
410.953545	0.999975
411.334138	1.000707
411.714669	0.999895
412.095139	1.001063
412.475547	1.000531
412.855894	1.000456
413.236180	1.000067
413.616405	1.000319
413.996568	1.000572
414.376670	0.999830
414.756711	0.999960
415.136691	1.000567
415.516609	1.000173
415.896466	1.000115
416.276262	0.999140
416.655997	1.000298
417.035670	1.001018
417.415283	1.000056
417.794834	1.000652
418.174324	1.000516
418.553753	0.999306
418.933121	1.000632
419.312428	1.000638
419.691674	1.001393
420.070859	1.000826
420.449983	1.000457
420.829045	0.999249
421.208047	1.001179
421.586988	0.999755
421.965867	0.999741
422.344686	1.000192
422.723444	0.999394
423.102141	1.000995
423.480777	0.999354
423.859352	0.999943
424.237866	1.000741
424.616319	1.000874
424.994712	0.999977
425.373044	0.999987
425.751314	1.001201
426.129524	1.001085
426.507673	0.999379
426.885762	1.000140
427.263789	0.999729
427.641756	1.000095
428.019662	0.999745
428.397508	1.000491
428.775292	1.000020
429.153016	0.999957
429.530679	1.000802
429.908282	1.000352
430.285824	0.999875
430.663305	1.001036
431.040726	1.000706
431.418086	1.000697
431.795385	1.001577
432.172624	1.000741
432.549802	1.000283
432.926920	1.000712
433.303977	1.000778
433.680974	1.000344
434.057910	1.000209
434.434786	1.000051
434.811601	1.000847
435.188355	1.001326
435.565050	1.000427
435.941683	1.000873
436.318257	1.000213
436.694770	1.000300
437.071222	1.001469
437.447614	1.000384
437.823946	1.000744
438.200218	1.000679
438.576429	1.000162
438.952580	0.999444
439.328670	0.999823
439.704700	0.999903
440.080670	1.000612
440.456580	1.000402
440.832429	1.000894
441.208218	1.001070
441.583947	1.000527
441.959616	0.999869
442.335224	1.001687
442.710773	1.001245
443.086261	1.000323
443.461689	1.000567
443.837057	1.000693
444.212365	1.000781
444.587612	1.000829
444.962800	1.000771
445.337927	1.001442
445.712995	1.000869
446.088002	1.000351
446.462949	1.000852
446.837837	1.001443
447.212664	1.000345
447.587431	1.000529
447.962139	1.000651
448.336786	0.999720
448.711374	1.000558
449.085901	1.000857
449.460369	1.000698
449.834776	1.000548
450.209124	1.000934
450.583412	1.000084
450.957640	1.000267
451.331808	1.001110
451.705917	1.000432
452.079965	1.000990
452.453954	1.001165
452.827883	1.000565
453.201752	1.000448
453.575562	0.999899
453.949311	1.000346
454.323001	0.999721
454.696632	1.000200
455.070202	1.000416
455.443713	1.000195
455.817164	1.000291
456.190556	0.999999
456.563888	1.000972
456.937160	1.000796
457.310373	1.000009
457.683526	1.000865
458.056619	1.000939
458.429653	1.000149
458.802628	1.001183
459.175542	1.000473
459.548398	1.000405
459.921194	1.000301
460.293930	1.001467
460.666607	1.000966
461.039224	1.000511
461.411782	1.000755
461.784280	1.000646
462.156719	1.001371
462.529099	1.000570
462.901419	1.000554
463.273680	0.999545
463.645882	1.000847
464.018024	1.001202
464.390106	0.999805
464.762130	1.000062
465.134094	1.000371
465.505999	1.000223
465.877845	1.000041
466.249631	1.000927
466.621358	0.999922
466.993026	1.000116
467.364634	1.000494
467.736184	1.000606
468.107674	1.000821
468.479105	1.000352
468.850477	1.000681
469.221790	1.001270
469.593043	1.000907
469.964238	1.000240
470.335373	1.000187
470.706449	1.000448
471.077467	1.000287
471.448425	1.001165
471.819324	1.001279
472.190164	1.000927
472.560945	1.000893
472.931667	1.000959
473.302330	1.001243
473.672934	1.001272
474.043479	1.000877
474.413965	1.000831
474.784393	1.000546
475.154761	1.000208
475.525070	1.000293
475.895321	1.001309
476.265513	1.001137
476.635645	1.001068
477.005719	1.000933
477.375734	1.001012
477.745691	1.000677
478.115588	1.000316
478.485427	1.000758
478.855207	1.000661
479.224928	1.000451
479.594591	1.000914
479.964194	1.000612
480.333739	1.000788
480.703226	1.000621
481.072653	0.999894
481.442022	1.001215
481.811333	1.000816
482.180584	1.001370
482.549777	1.000861
482.918912	1.000563
483.287988	1.000981
483.657005	1.000776
484.025964	1.000650
484.394864	1.000677
484.763706	1.000889
485.132489	1.000856
485.501213	1.000910
485.869879	1.000854
486.238487	0.999647
486.607036	1.001359
486.975527	1.001285
487.343959	0.999781
487.712333	1.000348
488.080648	1.000067
488.448905	1.001243
488.817104	1.000689
489.185244	1.000689
489.553326	1.000468
489.921350	1.001260
490.289315	1.000579
490.657222	0.999832
491.025070	1.001061
491.392861	1.001166
491.760593	1.001358
492.128267	1.000810
492.495883	1.000360
492.863440	1.000922
493.230939	1.001033
493.598380	1.000828
493.965763	1.000622
494.333088	0.999875
494.700354	0.999960
495.067563	1.000673
495.434713	1.000690
495.801805	1.000482
496.168839	1.000909
496.535815	1.000369
496.902733	1.000562
497.269593	1.000227
497.636395	1.000458
498.003139	1.000190
498.369825	1.001209
498.736453	1.000725
499.103023	1.001271
499.469535	1.000912
499.835989	1.000553
500.202385	1.000835
500.568723	1.000892
500.935003	1.000540
501.301226	1.000968
501.667390	0.999777
502.033497	1.000850
502.399546	1.000311
502.765537	1.000684
503.131470	1.001172
503.497345	1.000718
503.863163	1.000289
504.228923	1.000454
504.594625	1.000352
504.960269	1.000426
505.325856	1.001513
505.691385	1.000761
506.056856	1.000557
506.422270	1.000374
506.787625	1.001369
507.152924	1.000863
507.518164	1.000102
507.883347	1.000675
508.248472	1.001489
508.613540	1.000450
508.978550	1.000651
509.343503	1.001302
509.708398	1.001089
510.073236	1.000782
510.438016	0.999844
510.802738	1.000276
511.167403	1.000596
511.532010	1.000415
511.896561	1.000590
512.261053	1.001110
512.625488	1.000290
512.989866	1.001133
513.354186	1.000003
513.718449	1.000729
514.082655	1.000197
514.446803	1.000071
514.810894	1.001056
515.174927	1.000752
515.538904	1.001762
515.902822	1.000935
516.266684	1.001251
516.630488	1.000343
516.994235	1.001059
517.357925	1.001469
517.721558	1.000483
518.085133	1.000551
518.448651	1.000926
518.812112	1.001029
519.175516	1.000871
519.538863	1.000366
519.902152	1.001030
520.265385	1.001101
520.628560	1.000476
520.991678	1.000644
521.354739	1.001487
521.717743	1.000531
522.080690	1.000460
522.443580	1.000746
522.806413	1.000387
523.169189	1.001498
523.531908	0.999904
523.894569	1.000716
524.257174	1.000837
524.619722	1.000041
524.982213	1.000845
525.344647	1.000793
525.707025	1.000051
526.069345	1.000408
526.431608	1.001267
526.793815	1.000803
527.155964	1.001203
527.518057	1.000373
527.880093	1.000821
528.242072	1.000511
528.603995	1.000543
528.965860	1.001541
529.327669	1.001667
529.689421	1.000148
530.051117	1.000714
530.412755	1.000842
530.774337	1.000379
531.135862	1.001191
531.497331	0.999990
531.858743	1.001268
532.220098	0.999437
532.581396	1.000824
532.942638	1.000778
533.303824	1.001512
533.664953	1.000516
534.026025	1.001539
534.387040	1.000906
534.747999	1.000182
535.108902	1.000785
535.469748	1.001396
535.830537	1.001596
536.191270	1.000623
536.551947	1.000176
536.912567	1.000646
537.273131	1.001139
537.633638	1.000824
537.994089	1.001624
538.354483	1.000736
538.714821	1.001132
539.075103	1.001645
539.435328	1.000775
539.795497	1.002179
540.155609	1.000827
540.515665	1.001263
540.875665	1.000781
541.235609	1.001096
541.595496	0.999980
541.955328	1.000725
542.315102	1.001052
542.674821	1.000858
543.034483	1.000660
543.394090	1.000122
543.753640	1.000345
544.113134	1.000204
544.472571	1.001695
544.831953	1.000690
545.191278	1.000907
545.550548	1.000048
545.909761	1.000347
546.268918	1.001298
546.628019	1.000995
546.987064	1.000541
547.346053	1.000141
547.704986	1.001085
548.063863	1.000875
548.422684	1.000237
548.781449	1.000964
549.140158	1.000686
549.498811	1.000201
549.857408	1.000019
550.215949	1.000774
550.574434	0.999986
550.932864	1.000995
551.291237	1.000711
551.649555	1.000959
552.007817	1.000439
552.366022	1.000944
552.724173	1.001050
553.082267	1.000875
553.440305	1.000286
553.798288	1.000330
554.156215	1.000872
554.514086	1.000695
554.871902	1.000202
555.229661	1.000333
555.587365	1.000233
555.945014	1.001018
556.302606	1.000346
556.660143	1.001345
557.017625	1.001589
557.375050	1.001245
557.732421	1.000819
558.089735	1.000391
558.446994	1.000742
558.804197	1.001214
559.161345	1.000478
559.518437	1.000250
559.875474	1.001446
560.232455	1.000995
560.589381	1.001730
560.946251	1.000815
561.303065	1.001216
561.659825	1.000244
562.016528	1.001212
562.373177	1.000480
562.729770	1.000232
563.086307	0.999920
563.442789	1.001517
563.799216	0.999727
564.155587	1.000747
564.511904	1.000799
564.868164	1.000084
565.224370	1.000070
565.580520	1.000957
565.936615	1.001079
566.292654	1.000613
566.648638	1.001548
567.004567	1.000227
567.360441	1.000418
567.716260	1.000806
568.072023	1.000444
568.427732	1.000713
568.783385	1.000549
569.138982	1.000888
569.494525	1.000344
569.850013	1.000488
570.205445	1.000222
570.560823	1.000330
570.916145	1.000332
571.271412	1.000787
571.626625	1.000560
571.981782	1.000608
572.336884	1.000913
572.691931	1.000363
573.046923	1.000530
573.401860	1.000682
573.756743	1.001232
574.111570	1.000030
574.466342	1.001087
574.821059	1.000736
575.175722	1.000811
575.530330	1.000826
575.884882	1.001296
576.239380	1.001156
576.593823	1.000207
576.948211	1.001228
577.302544	1.000514
577.656823	1.000656
578.011047	1.000462
578.365216	1.001058
578.719330	1.000985
579.073389	0.999683
579.427394	1.000862
579.781344	1.001249
580.135239	0.999443
580.489080	1.000781
580.842866	1.000886
581.196597	1.000573
581.550273	1.000252
581.903895	1.001307
582.257463	1.000674
582.610975	0.999837
582.964434	1.000686
583.317837	1.000635
583.671186	1.000863
584.024481	1.000360
584.377721	1.000705
584.730906	1.000671
585.084037	1.001402
585.437113	1.001165
585.790135	1.000924
586.143103	0.999842
586.496016	1.000822
586.848874	1.000472
587.201679	1.000455
587.554428	1.000355
587.907124	1.001407
588.259765	1.000592
588.612352	1.000778
588.964884	1.000994
589.317362	1.000481
589.669786	1.000588
590.022155	1.000022
590.374470	1.000666
590.726731	0.999864
591.078937	1.000711
591.431090	1.000357
591.783188	1.000251
592.135232	1.001422
592.487222	1.000904
592.839157	1.000385
593.191038	1.000229
593.542866	1.000720
593.894639	1.000121
594.246358	1.000728
594.598022	1.000484
594.949633	1.000376
595.301190	1.000514
595.652692	1.000513
596.004141	1.000229
596.355535	1.000039
596.706876	1.000838
597.058162	1.000591
597.409395	1.000550
597.760573	1.000563
598.111698	1.000501
598.462768	1.000086
598.813785	0.999796
599.164748	0.999919
599.515657	1.000074
599.866511	1.000149
600.217312	1.001302
600.568060	1.000539
600.918753	1.000587
601.269392	1.000420
601.619978	1.000462
601.970510	0.999952
602.320988	1.000332
602.671412	1.000466
603.021783	1.000573
603.372100	1.000604
603.722363	1.000482
604.072572	0.999940
604.422728	1.000474
604.772830	1.000002
605.122878	1.000133
605.472872	1.001506
605.822813	1.000681
606.172701	1.000624
606.522534	1.000861
606.872314	1.001706
607.222041	1.000014
607.571714	1.000621
607.921333	1.001077
608.270899	1.000224
608.620411	1.001013
608.969870	1.000855
609.319276	1.000938
609.668627	1.000832
610.017926	1.000451
610.367171	1.000801
610.716362	1.000215
611.065500	1.000432
611.414585	1.000540
611.763616	1.001260
612.112594	1.001414
612.461518	0.999341
612.810389	1.000449
613.159207	1.000712
613.507971	0.999342
613.856682	1.001043
614.205340	0.999768
614.553945	1.000811
614.902496	1.000531
615.250994	1.000712
615.599439	1.001262
615.947830	1.000680
616.296169	1.000833
616.644454	1.000383
616.992686	1.001120
617.340864	0.999973
617.688990	1.000469
618.037063	1.000694
618.385082	0.999634
618.733048	1.000205
619.080961	1.000152
619.428821	1.000892
619.776628	0.999861
620.124382	1.001138
620.472083	1.001133
620.819731	1.001612
621.167326	1.000445
621.514868	1.000363
621.862357	1.001176
622.209793	1.000734
622.557176	1.000438
622.904506	0.999890
623.251783	1.000346
623.599007	1.000635
623.946179	0.999718
624.293297	1.000126
624.640363	1.000903
624.987376	0.999586
625.334336	1.000218
625.681243	1.000405
626.028097	1.000496
626.374899	1.000326
626.721647	1.001087
627.068343	1.000503
627.414987	1.000596
627.761577	1.000101
628.108115	1.000278
628.454600	1.001292
628.801032	1.001002
629.147412	1.000333
629.493739	1.000704
629.840014	0.999819
630.186236	0.999906
630.532405	1.000086
630.878521	1.000218
631.224585	1.000531
631.570597	1.000747
631.916556	1.000944
632.262462	0.999561
632.608316	1.000472
632.954117	1.000134
633.299866	0.999850
633.645562	1.000326
633.991206	1.000359
634.336797	1.000314
634.682336	1.001896
635.027823	1.000390
635.373257	1.000530
635.718639	1.000676
636.063968	1.000851
636.409245	0.999900
636.754470	1.000490
637.099642	1.001127
637.444762	1.000748
637.789829	1.000408
638.134845	0.999407
638.479808	1.000427
638.824719	1.000768
639.169577	1.000341
639.514383	1.000632
639.859137	1.000348
640.203839	0.999933
640.548489	1.000460
640.893086	1.000481
641.237632	1.000975
641.582125	1.000173
641.926566	1.001721
642.270955	1.000008
642.615292	1.000344
642.959576	1.000078
643.303809	1.000757
643.647990	1.000437
643.992118	1.001055
644.336195	0.999511
644.680219	1.000914
645.024192	1.000301
645.368112	1.000266
645.711981	0.999936
646.055797	1.000827
646.399562	0.999472
646.743274	1.001324
647.086935	0.999567
647.430544	0.999208
647.774101	0.999977
648.117606	1.000918
648.461059	1.000713
648.804460	1.001383
649.147810	0.999990
649.491108	1.000592
649.834354	1.000650
650.177548	1.000041
650.520690	1.000236
650.863781	1.000065
651.206820	1.000145
651.549807	1.000971
651.892742	1.001573
652.235626	1.000434
652.578458	1.000376
652.921238	1.000769
653.263967	1.000363
653.606644	1.000198
653.949269	1.000902
654.291843	0.999804
654.634365	1.001068
654.976836	0.999681
655.319255	1.001121
655.661622	1.000906
656.003938	1.000850
656.346203	0.999664
656.688416	1.001061
657.030577	1.000543
657.372687	1.000745
657.714746	0.999871
658.056753	1.000115
658.398708	0.999776
658.740612	1.001379
659.082465	1.000739
659.424266	1.000451
659.766016	0.999375
660.107715	1.000544
660.449362	1.000681
660.790958	0.999278
661.132503	1.000573
661.473996	0.999998
661.815438	1.000574
662.156829	1.000962
662.498168	1.000707
662.839456	0.999500
663.180693	1.000625
663.521879	1.000297
663.863013	1.000992
664.204097	0.999333
664.545129	1.000156
664.886110	1.000166
665.227040	1.000980
665.567918	0.999642
665.908746	1.000263
666.249522	0.999903
666.590248	1.000152
666.930922	0.999751
667.271545	1.000990
667.612118	1.000366
667.952639	1.000464
668.293109	0.999935
668.633528	1.000084
668.973896	1.000577
669.314213	0.999664
669.654480	1.000120
669.994695	0.999912
670.334859	1.000531
670.674973	1.000538
671.015035	1.000409
671.355047	0.999882
671.695008	1.000188
672.034918	1.000330
672.374777	1.000982
672.714585	0.999723
673.054342	1.000601
673.394049	1.000136
673.733705	0.999790
674.073310	1.000161
674.412864	1.000251
674.752368	0.999505
675.091820	1.001074
675.431223	1.000771
675.770574	0.999983
676.109875	1.000557
676.449125	0.999774
676.788324	0.999935
677.127473	1.000676
677.466571	1.000799
677.805619	1.000463
678.144616	1.000709
678.483562	1.000359
678.822458	1.000698
679.161303	1.000023
679.500098	1.001208
679.838842	1.001282
680.177535	0.999143
680.516179	0.999465
680.854771	0.999927
681.193314	0.999723
681.531805	1.000014
681.870247	0.999635
682.208638	1.000295
682.546978	0.999584
682.885268	1.000067
683.223508	0.999997
683.561697	1.000150
683.899836	1.000251
684.237925	0.999762
684.575963	1.000354
684.913951	0.999417
685.251889	0.999683
685.589776	1.000131
685.927614	1.000036
686.265401	1.000384
686.603137	1.000097
686.940824	1.000092
687.278460	1.000593
687.616046	1.000296
687.953582	0.999993
688.291068	1.000921
688.628504	1.000322
