Dividing Wavelength (nm)	Counts (n)	Blue Motor Position (mm): 43.400000	Red Motor Position (mm): 0.000000	
326.493990	1.000101
326.888308	1.000101
327.282561	1.000101
327.676750	1.000625
328.070874	1.000987
328.464933	1.001662
328.858929	0.999860
329.252859	1.000539
329.646726	0.998414
330.040528	0.999807
330.434265	0.999923
330.827938	0.999620
331.221547	0.998878
331.615091	1.000414
332.008571	1.001029
332.401986	1.000177
332.795338	0.999505
333.188625	1.001109
333.581847	0.999590
333.975006	1.000204
334.368100	0.999959
334.761129	0.999876
335.154095	0.999981
335.546996	1.000319
335.939833	0.999055
336.332606	0.999854
336.725315	0.999226
337.117960	1.000757
337.510540	0.998916
337.903056	0.999766
338.295508	1.001056
338.687896	1.000361
339.080220	0.998604
339.472480	0.999542
339.864676	1.000580
340.256807	0.998944
340.648875	1.000267
341.040879	1.000314
341.432818	1.001075
341.824694	0.999883
342.216506	1.001199
342.608253	1.000743
342.999937	0.999305
343.391557	0.999513
343.783113	1.001375
344.174605	1.000215
344.566033	1.000144
344.957397	1.000806
345.348697	0.999188
345.739934	0.999419
346.131106	1.000148
346.522215	0.999556
346.913260	1.001578
347.304241	1.000725
347.695159	1.000217
348.086012	1.000119
348.476802	0.999556
348.867528	0.999188
349.258191	1.000272
349.648789	1.000362
350.039324	0.999716
350.429796	1.000165
350.820203	0.999122
351.210548	1.000674
351.600828	1.000150
351.991045	0.999296
352.381198	1.000626
352.771288	0.998860
353.161314	1.000516
353.551276	0.998838
353.941175	0.998449
354.331010	0.999928
354.720782	0.999228
355.110490	0.998838
355.500135	1.000925
355.889717	0.998867
356.279235	0.998385
356.668689	1.000157
357.058080	0.999496
357.447408	0.998606
357.836672	0.999143
358.225873	1.000046
358.615010	0.999111
359.004084	0.997287
359.393095	0.998563
359.782043	0.999959
360.170927	0.999395
360.559748	0.998933
360.948505	0.997885
361.337199	0.999730
361.725830	1.000104
362.114398	0.998932
362.502903	0.998939
362.891344	0.998360
363.279722	0.998566
363.668037	1.000201
364.056289	0.999126
364.444478	0.999963
364.832603	0.998228
365.220665	0.999121
365.608665	0.998983
365.996601	0.999141
366.384474	0.998717
366.772284	0.998743
367.160031	0.998168
367.547715	0.997741
367.935336	0.997238
368.322893	0.996061
368.710388	0.995128
369.097820	0.993876
369.485189	0.990437
369.872495	0.989941
370.259738	0.987843
370.646918	0.984270
371.034035	0.983053
371.421090	0.979578
371.808081	0.974103
372.195010	0.972137
372.581875	0.966242
372.968678	0.962740
373.355418	0.959689
373.742096	0.951501
374.128710	0.946698
374.515262	0.942382
374.901751	0.936945
375.288177	0.931952
375.674540	0.925869
376.060841	0.919128
376.447079	0.912479
376.833254	0.907057
377.219367	0.901510
377.605417	0.890422
377.991404	0.888655
378.377329	0.883136
378.763191	0.876831
379.148991	0.869241
379.534727	0.863830
379.920402	0.857423
380.306013	0.855336
380.691563	0.844962
381.077049	0.841282
381.462474	0.840003
381.847835	0.833163
382.233134	0.831833
382.618371	0.834784
383.003545	0.824078
383.388657	0.826610
383.773706	0.823579
384.158693	0.824098
384.543618	0.824503
384.928480	0.822327
385.313280	0.819297
385.698017	0.822730
386.082692	0.819821
386.467305	0.824166
386.851856	0.827369
387.236344	0.829441
387.620770	0.832343
388.005133	0.834720
388.389435	0.837661
388.773674	0.842772
389.157851	0.845700
389.541965	0.851661
389.926018	0.860235
390.310008	0.861866
390.693936	0.867409
391.077802	0.871464
391.461606	0.878606
391.845348	0.881235
392.229027	0.886888
392.612645	0.893740
392.996200	0.896802
393.379694	0.900326
393.763125	0.904742
394.146494	0.912685
394.529801	0.916341
394.913047	0.920721
395.296230	0.928507
395.679351	0.932376
396.062410	0.938160
396.445408	0.944078
396.828343	0.948651
397.211217	0.952078
397.594028	0.958151
397.976778	0.962004
398.359466	0.965247
398.742092	0.968759
399.124656	0.971824
399.507158	0.974458
399.889598	0.978025
400.271977	0.980262
400.654294	0.982102
401.036549	0.984755
401.418742	0.987104
401.800874	0.988629
402.182944	0.988747
402.564952	0.991228
402.946898	0.992629
403.328783	0.993542
403.710606	0.994792
404.092367	0.994667
404.474067	0.996468
404.855705	0.997216
405.237282	0.996700
405.618797	0.997112
406.000250	0.997396
406.381642	0.997068
406.762972	0.998529
407.144240	0.999033
407.525447	0.997985
407.906593	0.998036
408.287677	0.998723
408.668700	1.000120
409.049661	0.999485
409.430560	0.998570
409.811399	0.998644
410.192176	0.999314
410.572891	1.000073
410.953545	0.998255
411.334138	0.999605
411.714669	0.999491
412.095139	0.999905
412.475547	1.000575
412.855894	0.999596
413.236180	1.000480
413.616405	1.000046
413.996568	0.999901
414.376670	0.999326
414.756711	0.999768
415.136691	0.999748
415.516609	0.999521
415.896466	0.999976
416.276262	0.999596
416.655997	0.999862
417.035670	1.000284
417.415283	1.000014
417.794834	1.000818
418.174324	1.000663
418.553753	0.999991
418.933121	1.000071
419.312428	1.000764
419.691674	1.001214
420.070859	1.000932
420.449983	1.000716
420.829045	1.000331
421.208047	1.000857
421.586988	0.999150
421.965867	0.999538
422.344686	0.999240
422.723444	0.999322
423.102141	1.000443
423.480777	0.999715
423.859352	0.999958
424.237866	1.000411
424.616319	1.000536
424.994712	1.000176
425.373044	1.000282
425.751314	1.000252
426.129524	1.000433
426.507673	0.999893
426.885762	0.999851
427.263789	1.000199
427.641756	1.000017
428.019662	1.001079
428.397508	1.000414
428.775292	0.999325
429.153016	0.999535
429.530679	1.000316
429.908282	1.000574
430.285824	1.000170
430.663305	1.000253
431.040726	1.000165
431.418086	1.000212
431.795385	1.000653
432.172624	1.001392
432.549802	1.000737
432.926920	1.000223
433.303977	1.000177
433.680974	1.000565
434.057910	0.999578
434.434786	0.999781
434.811601	0.999923
435.188355	1.000771
435.565050	0.999909
435.941683	1.000518
436.318257	0.999635
436.694770	1.000050
437.071222	1.000935
437.447614	1.000383
437.823946	1.001448
438.200218	1.000564
438.576429	0.999923
438.952580	0.999985
439.328670	0.999587
439.704700	0.999636
440.080670	1.000489
440.456580	0.999990
440.832429	1.001280
441.208218	1.000507
441.583947	1.000772
441.959616	0.999636
442.335224	1.000990
442.710773	1.000942
443.086261	1.000432
443.461689	1.000518
443.837057	1.000573
444.212365	1.000534
444.587612	1.001213
444.962800	1.000517
445.337927	1.001200
445.712995	1.000423
446.088002	1.000459
446.462949	1.000148
446.837837	1.001645
447.212664	0.999682
447.587431	1.001052
447.962139	1.000447
448.336786	0.999266
448.711374	1.000231
449.085901	1.000022
449.460369	1.000821
449.834776	0.999731
450.209124	1.001158
450.583412	1.000316
450.957640	1.000188
451.331808	1.001104
451.705917	0.999522
452.079965	1.000496
452.453954	1.000539
452.827883	1.001127
453.201752	1.001080
453.575562	0.999815
453.949311	1.000192
454.323001	0.999938
454.696632	0.999607
455.070202	1.000426
455.443713	1.000425
455.817164	1.000531
456.190556	1.000634
456.563888	1.000975
456.937160	1.000543
457.310373	1.000323
457.683526	1.000676
458.056619	1.000951
458.429653	0.999905
458.802628	0.999870
459.175542	1.000335
459.548398	1.000272
459.921194	1.000888
460.293930	1.001535
460.666607	1.000663
461.039224	1.001120
461.411782	1.000049
461.784280	1.000339
462.156719	1.000855
462.529099	1.000801
462.901419	1.000959
463.273680	0.999165
463.645882	0.999714
464.018024	1.000104
464.390106	1.000205
464.762130	1.000246
465.134094	1.000088
465.505999	1.000510
465.877845	1.000192
466.249631	1.000140
466.621358	0.999870
466.993026	1.000485
467.364634	1.000444
467.736184	1.000223
468.107674	0.999930
468.479105	1.000841
468.850477	1.000301
469.221790	1.001030
469.593043	1.000315
469.964238	0.999990
470.335373	1.000653
470.706449	1.000208
471.077467	1.000580
471.448425	1.000405
471.819324	1.000710
472.190164	0.999806
472.560945	1.000409
472.931667	1.000240
473.302330	1.000425
473.672934	1.000594
474.043479	1.000650
474.413965	1.000986
474.784393	0.999749
475.154761	0.999261
475.525070	0.999764
475.895321	1.001148
476.265513	1.000300
476.635645	1.001461
477.005719	1.000894
477.375734	1.000806
477.745691	0.999803
478.115588	1.000106
478.485427	1.001077
478.855207	1.000738
479.224928	1.000576
479.594591	1.000732
479.964194	1.000311
480.333739	1.000590
480.703226	1.000292
481.072653	0.999816
481.442022	1.000922
481.811333	1.000738
482.180584	1.000436
482.549777	1.000134
482.918912	1.000525
483.287988	1.000600
483.657005	1.000460
484.025964	1.000170
484.394864	0.999546
484.763706	0.999483
485.132489	1.000376
485.501213	1.000708
485.869879	1.000523
486.238487	0.999841
486.607036	1.001616
486.975527	1.000505
487.343959	1.000489
487.712333	0.999490
488.080648	1.000218
488.448905	1.000534
488.817104	1.000379
489.185244	1.000246
489.553326	1.000056
489.921350	1.000307
490.289315	1.000062
490.657222	0.999443
491.025070	1.000368
491.392861	1.000551
491.760593	1.000381
492.128267	1.000362
492.495883	0.999337
492.863440	1.000691
493.230939	1.000401
493.598380	1.001151
493.965763	1.000505
494.333088	0.999790
494.700354	1.000049
495.067563	0.999877
495.434713	1.000563
495.801805	1.000119
496.168839	1.000608
496.535815	1.000514
496.902733	1.000069
497.269593	0.999878
497.636395	0.999759
498.003139	0.999822
498.369825	1.000679
498.736453	1.000620
499.103023	1.000459
499.469535	1.000898
499.835989	1.000386
500.202385	1.000594
500.568723	1.000781
500.935003	1.000537
501.301226	1.001250
501.667390	0.999908
502.033497	0.999894
502.399546	0.999921
502.765537	1.000482
503.131470	1.000231
503.497345	1.000490
503.863163	1.000387
504.228923	1.000154
504.594625	0.999832
504.960269	1.000597
505.325856	1.001089
505.691385	1.000888
506.056856	1.000195
506.422270	1.000355
506.787625	1.000901
507.152924	1.000378
507.518164	0.999857
507.883347	0.999696
508.248472	1.000567
508.613540	1.000242
508.978550	1.000911
509.343503	1.000608
509.708398	1.000807
510.073236	1.000661
510.438016	0.999787
510.802738	0.999956
511.167403	1.000095
511.532010	1.001687
511.896561	1.000652
512.261053	0.999504
512.625488	1.000181
512.989866	1.000398
513.354186	0.999865
513.718449	1.000565
514.082655	1.000131
514.446803	1.000296
514.810894	1.000974
515.174927	1.000780
515.538904	1.000870
515.902822	1.000820
516.266684	1.000566
516.630488	1.000339
516.994235	1.000664
517.357925	1.000871
517.721558	1.000295
518.085133	1.000044
518.448651	1.000268
518.812112	1.000805
519.175516	1.000339
519.538863	1.000259
519.902152	1.000709
520.265385	1.000396
520.628560	1.000158
520.991678	1.000128
521.354739	1.000771
521.717743	1.000649
522.080690	1.000411
522.443580	1.000256
522.806413	1.000172
523.169189	1.000703
523.531908	0.999535
523.894569	1.000188
524.257174	1.000361
524.619722	1.000521
524.982213	1.000424
525.344647	1.000127
525.707025	1.000160
526.069345	0.999652
526.431608	1.000814
526.793815	1.000746
527.155964	1.000818
527.518057	1.000701
527.880093	1.000680
528.242072	1.000212
528.603995	1.000346
528.965860	1.000977
529.327669	1.000285
529.689421	1.000082
530.051117	1.000758
530.412755	1.001543
530.774337	1.000297
531.135862	1.000803
531.497331	1.000060
531.858743	1.000531
532.220098	1.000130
532.581396	1.000247
532.942638	1.000309
533.303824	1.000935
533.664953	1.000045
534.026025	1.001210
534.387040	1.000395
534.747999	1.000142
535.108902	1.000373
535.469748	1.001125
535.830537	1.000930
536.191270	1.000906
536.551947	1.000346
536.912567	1.000783
537.273131	1.000869
537.633638	1.000720
537.994089	1.000126
538.354483	1.000529
538.714821	1.000436
539.075103	1.000750
539.435328	1.001244
539.795497	1.000337
540.155609	1.000652
540.515665	1.000803
540.875665	1.000672
541.235609	1.000463
541.595496	1.000166
541.955328	0.999585
542.315102	1.000442
542.674821	1.000854
543.034483	1.001376
543.394090	1.000278
543.753640	1.000443
544.113134	1.000259
544.472571	1.000822
544.831953	1.000264
545.191278	0.999863
545.550548	0.999687
545.909761	1.000266
546.268918	1.001030
546.628019	1.000587
546.987064	0.999637
547.346053	0.999585
547.704986	1.000111
548.063863	1.000368
548.422684	1.000779
548.781449	1.000585
549.140158	1.000093
549.498811	1.000165
549.857408	0.999849
550.215949	1.000287
550.574434	1.000111
550.932864	1.000268
551.291237	1.000262
551.649555	1.000873
552.007817	1.000223
552.366022	1.000676
552.724173	1.000568
553.082267	1.000330
553.440305	1.000033
553.798288	0.999559
554.156215	0.999842
554.514086	1.000294
554.871902	1.000103
555.229661	0.999363
555.587365	0.999969
555.945014	1.001139
556.302606	0.999775
556.660143	1.000751
557.017625	1.000398
557.375050	0.999851
557.732421	1.000305
558.089735	0.999836
558.446994	1.000092
558.804197	1.000379
559.161345	0.999778
559.518437	1.000250
559.875474	1.000746
560.232455	1.000212
560.589381	1.000560
560.946251	1.000005
561.303065	1.000553
561.659825	0.999409
562.016528	1.000527
562.373177	1.000400
562.729770	1.000049
563.086307	0.999402
563.442789	1.000793
563.799216	0.999346
564.155587	1.000457
564.511904	1.001416
564.868164	0.999484
565.224370	1.000245
565.580520	0.999982
565.936615	0.999835
566.292654	0.999530
566.648638	1.000425
567.004567	1.000085
567.360441	1.000685
567.716260	1.000064
568.072023	0.999907
568.427732	0.999688
568.783385	1.000016
569.138982	0.999920
569.494525	0.999860
569.850013	1.000402
570.205445	1.000466
570.560823	0.999468
570.916145	0.999271
571.271412	0.999918
571.626625	1.000350
571.981782	1.000176
572.336884	1.000207
572.691931	0.999168
573.046923	1.000609
573.401860	0.999983
573.756743	0.999701
574.111570	1.000342
574.466342	1.000292
574.821059	0.999756
575.175722	1.001005
575.530330	0.999508
575.884882	1.000575
576.239380	1.000519
576.593823	0.999864
576.948211	1.000323
577.302544	1.000568
577.656823	1.000024
578.011047	0.999382
578.365216	1.000278
578.719330	0.999960
579.073389	0.999443
579.427394	1.000471
579.781344	1.000401
580.135239	0.999451
580.489080	1.000433
580.842866	1.000215
581.196597	0.999554
581.550273	1.000096
581.903895	1.000347
582.257463	0.999707
582.610975	0.999831
582.964434	1.000507
583.317837	0.999800
583.671186	0.999951
584.024481	0.999789
584.377721	0.998837
584.730906	0.999922
585.084037	1.001368
585.437113	1.001072
585.790135	1.000059
586.143103	1.000271
586.496016	0.999822
586.848874	1.000939
587.201679	0.999859
587.554428	0.999417
587.907124	1.000839
588.259765	0.999851
588.612352	1.000567
588.964884	0.999529
589.317362	0.999878
589.669786	0.999708
590.022155	0.999415
590.374470	1.000243
590.726731	0.999214
591.078937	1.000478
591.431090	1.000018
591.783188	0.998683
592.135232	0.999960
592.487222	0.999568
592.839157	0.999930
593.191038	0.999953
593.542866	0.999863
593.894639	0.998865
594.246358	1.000128
594.598022	0.999991
594.949633	0.999825
595.301190	0.999738
595.652692	1.000354
596.004141	0.999331
596.355535	0.999722
596.706876	1.000434
597.058162	0.999753
597.409395	1.000358
597.760573	0.999693
598.111698	0.999355
598.462768	0.999302
598.813785	0.999543
599.164748	0.999557
599.515657	0.999616
599.866511	0.999923
600.217312	1.000342
600.568060	0.999419
600.918753	0.999800
601.269392	0.999683
601.619978	0.999874
601.970510	0.999419
602.320988	0.999440
602.671412	1.000109
603.021783	0.999541
603.372100	0.999434
603.722363	1.000418
604.072572	0.999229
604.422728	0.999265
604.772830	0.999353
605.122878	0.999657
605.472872	0.999883
605.822813	0.999184
606.172701	0.999714
606.522534	0.999675
606.872314	0.999989
607.222041	0.999178
607.571714	0.999427
607.921333	0.999567
608.270899	0.999662
608.620411	0.999529
608.969870	1.000128
609.319276	0.999692
609.668627	0.999957
610.017926	0.999552
610.367171	1.000025
610.716362	0.999862
611.065500	0.998487
611.414585	0.999963
611.763616	0.999008
612.112594	0.999050
612.461518	0.999024
612.810389	0.999131
613.159207	0.999111
613.507971	0.998917
613.856682	1.000010
614.205340	0.998688
614.553945	0.999422
614.902496	0.999001
615.250994	0.998134
615.599439	0.999687
615.947830	0.999204
616.296169	0.999797
616.644454	0.999998
616.992686	0.999357
617.340864	1.000012
617.688990	0.999703
618.037063	0.999639
618.385082	0.999244
618.733048	0.999045
619.080961	0.999912
619.428821	0.999015
619.776628	0.998954
620.124382	0.999433
620.472083	0.999810
620.819731	1.000432
621.167326	0.999413
621.514868	0.999488
621.862357	0.999523
622.209793	0.999495
622.557176	0.999225
622.904506	0.999513
623.251783	0.999442
623.599007	0.999641
623.946179	0.998917
624.293297	0.999582
624.640363	0.999657
624.987376	0.998431
625.334336	0.998920
625.681243	0.999078
626.028097	0.999552
626.374899	0.999487
626.721647	1.000395
627.068343	0.998792
627.414987	0.999536
627.761577	0.998755
628.108115	0.998595
628.454600	0.999760
628.801032	0.998894
629.147412	0.999309
629.493739	0.999856
629.840014	0.999086
630.186236	0.998958
630.532405	0.998539
630.878521	0.999046
631.224585	0.999057
631.570597	0.999136
631.916556	0.999285
632.262462	0.998256
632.608316	0.999725
632.954117	0.998184
633.299866	0.998679
633.645562	0.998988
633.991206	0.999575
634.336797	0.998813
634.682336	1.000100
635.027823	0.999287
635.373257	0.999110
635.718639	0.999732
636.063968	0.999143
636.409245	0.999170
636.754470	0.998824
637.099642	0.999629
637.444762	0.998639
637.789829	0.999085
638.134845	0.999192
638.479808	0.999538
638.824719	0.999394
639.169577	0.999228
639.514383	0.998979
639.859137	0.999266
640.203839	0.998513
640.548489	0.999118
640.893086	0.999149
641.237632	0.999242
641.582125	0.998613
641.926566	0.999705
642.270955	0.999290
642.615292	0.998721
642.959576	0.999039
643.303809	0.999516
643.647990	0.999465
643.992118	0.999599
644.336195	0.998517
644.680219	0.998487
645.024192	0.999155
645.368112	0.998912
645.711981	0.999318
646.055797	0.998422
646.399562	0.997799
646.743274	0.999294
647.086935	0.998560
647.430544	0.998777
647.774101	0.999181
648.117606	0.999076
648.461059	0.999422
648.804460	0.999168
649.147810	0.998454
649.491108	0.999121
649.834354	0.998962
650.177548	0.998990
650.520690	0.998779
650.863781	0.998160
651.206820	0.998782
651.549807	0.998422
651.892742	0.999504
652.235626	0.998666
652.578458	0.999475
652.921238	0.999680
653.263967	0.999343
653.606644	0.998278
653.949269	0.999176
654.291843	0.998637
654.634365	0.998692
654.976836	0.998029
655.319255	0.999470
655.661622	0.999357
656.003938	0.998001
656.346203	0.998964
656.688416	1.000385
657.030577	0.999135
657.372687	0.999930
657.714746	0.999165
658.056753	0.999235
658.398708	0.998770
658.740612	1.000196
659.082465	0.998643
659.424266	0.999574
659.766016	0.997814
660.107715	0.999899
660.449362	0.998886
660.790958	0.998458
661.132503	1.000025
661.473996	0.998057
661.815438	0.999321
662.156829	0.999480
662.498168	0.999746
662.839456	0.998083
663.180693	0.999367
663.521879	0.998739
663.863013	0.999756
664.204097	0.997972
664.545129	0.999213
664.886110	0.999372
665.227040	0.998817
665.567918	0.998652
665.908746	0.997773
666.249522	0.998187
666.590248	0.998586
666.930922	0.998748
667.271545	0.998785
667.612118	0.999184
667.952639	0.998952
668.293109	0.999256
668.633528	0.998042
668.973896	0.999255
669.314213	0.998482
669.654480	0.999258
669.994695	0.998234
670.334859	0.999074
670.674973	0.999052
671.015035	0.998560
671.355047	0.998639
671.695008	0.998250
672.034918	0.998196
672.374777	0.998974
672.714585	0.998985
673.054342	0.999248
673.394049	0.999046
673.733705	0.998236
674.073310	0.998960
674.412864	0.998369
674.752368	0.998241
675.091820	0.999664
675.431223	0.999290
675.770574	0.998531
676.109875	0.998642
676.449125	0.998026
676.788324	0.998604
677.127473	0.999466
677.466571	0.999509
677.805619	0.998524
678.144616	0.998921
678.483562	0.999522
678.822458	0.999037
679.161303	0.998224
679.500098	0.998331
679.838842	0.999620
680.177535	0.999521
680.516179	0.998480
680.854771	0.997912
681.193314	0.998279
681.531805	0.999221
681.870247	0.999404
682.208638	0.998874
682.546978	0.998391
682.885268	0.998221
683.223508	0.998258
683.561697	0.998472
683.899836	0.998865
684.237925	0.997718
684.575963	0.998725
684.913951	0.998528
685.251889	0.998673
685.589776	0.998716
685.927614	0.998956
686.265401	0.998409
686.603137	0.997860
686.940824	0.997993
687.278460	0.998803
687.616046	0.998627
687.953582	0.998393
688.291068	0.999312
688.628504	0.998481
