Dividing Wavelength (nm)	Counts (n)	Blue Motor Position (mm): 49.700000	Red Motor Position (mm): 0.000000	
326.493990	0.998886
326.888308	0.998886
327.282561	0.998886
327.676750	0.999641
328.070874	0.999989
328.464933	1.000469
328.858929	1.000518
329.252859	0.999509
329.646726	1.000470
330.040528	0.999291
330.434265	0.999175
330.827938	0.999298
331.221547	0.999779
331.615091	1.000195
332.008571	1.000468
332.401986	0.999209
332.795338	1.000016
333.188625	1.001250
333.581847	0.999547
333.975006	1.000627
334.368100	0.999970
334.761129	0.999077
335.154095	0.999418
335.546996	0.998748
335.939833	0.998204
336.332606	1.000117
336.725315	1.000092
337.117960	0.999622
337.510540	0.999079
337.903056	0.999625
338.295508	1.000457
338.687896	0.999966
339.080220	0.999845
339.472480	0.999981
339.864676	1.000904
340.256807	0.999939
340.648875	1.000759
341.040879	0.999820
341.432818	1.000306
341.824694	0.998811
342.216506	1.001094
342.608253	1.000870
342.999937	0.999153
343.391557	1.000078
343.783113	1.001983
344.174605	1.000624
344.566033	0.998399
344.957397	1.000432
345.348697	1.000756
345.739934	1.000644
346.131106	0.999804
346.522215	0.999547
346.913260	1.001214
347.304241	0.998753
347.695159	1.000577
348.086012	1.000297
348.476802	0.999116
348.867528	0.999515
349.258191	1.000474
349.648789	0.999561
350.039324	0.999934
350.429796	0.999503
350.820203	0.999115
351.210548	0.999799
351.600828	1.000825
351.991045	0.999644
352.381198	1.001067
352.771288	0.999369
353.161314	1.000642
353.551276	0.999334
353.941175	0.996776
354.331010	1.000246
354.720782	1.000367
355.110490	0.998934
355.500135	1.001080
355.889717	0.997810
356.279235	1.000163
356.668689	0.998761
357.058080	0.999908
357.447408	1.000242
357.836672	0.999664
358.225873	0.998534
358.615010	1.000060
359.004084	0.998826
359.393095	0.999010
359.782043	0.999228
360.170927	1.000270
360.559748	0.999815
360.948505	1.000127
361.337199	1.000062
361.725830	1.000898
362.114398	0.999906
362.502903	0.999375
362.891344	0.998984
363.279722	0.999186
363.668037	1.000781
364.056289	0.999414
364.444478	1.000525
364.832603	0.999034
365.220665	1.000201
365.608665	0.999579
365.996601	0.999238
366.384474	0.998138
366.772284	1.000009
367.160031	0.998634
367.547715	0.999451
367.935336	0.999297
368.322893	1.000362
368.710388	0.998953
369.097820	0.998887
369.485189	0.998304
369.872495	0.998818
370.259738	0.999281
370.646918	0.998185
371.034035	0.998431
371.421090	0.999577
371.808081	0.998348
372.195010	0.998993
372.581875	0.997874
372.968678	0.997565
373.355418	0.998863
373.742096	0.997066
374.128710	0.998119
374.515262	0.998119
374.901751	0.997636
375.288177	0.997835
375.674540	0.997978
376.060841	0.998148
376.447079	0.997462
376.833254	0.997529
377.219367	0.998006
377.605417	0.997147
377.991404	0.998316
378.377329	0.998587
378.763191	0.997828
379.148991	0.997937
379.534727	0.999236
379.920402	0.998883
380.306013	0.997850
380.691563	0.998917
381.077049	0.998475
381.462474	0.999256
381.847835	0.997526
382.233134	0.999251
382.618371	0.999322
383.003545	0.998939
383.388657	0.999495
383.773706	0.999590
384.158693	1.000065
384.543618	1.000198
384.928480	0.999958
385.313280	0.999768
385.698017	0.998954
386.082692	0.999446
386.467305	0.998382
386.851856	1.000366
387.236344	0.999832
387.620770	1.000215
388.005133	1.000259
388.389435	0.999367
388.773674	0.999197
389.157851	0.999919
389.541965	0.999725
389.926018	1.000122
390.310008	0.999956
390.693936	1.001036
391.077802	0.999807
391.461606	0.999450
391.845348	1.000345
392.229027	0.999238
392.612645	1.000301
392.996200	1.000290
393.379694	0.999598
393.763125	1.000456
394.146494	1.000147
394.529801	1.000861
394.913047	0.998967
395.296230	0.999497
395.679351	0.999439
396.062410	1.000299
396.445408	1.000515
396.828343	1.000378
397.211217	0.999429
397.594028	0.999531
397.976778	1.000431
398.359466	1.000040
398.742092	1.000548
399.124656	0.999586
399.507158	0.999642
399.889598	1.000442
400.271977	1.000129
400.654294	0.999741
401.036549	1.000827
401.418742	1.000672
401.800874	1.000180
402.182944	0.999184
402.564952	0.999450
402.946898	1.000778
403.328783	1.000193
403.710606	0.999018
404.092367	0.999595
404.474067	1.001289
404.855705	1.001314
405.237282	0.999802
405.618797	1.000674
406.000250	0.999780
406.381642	0.999331
406.762972	1.000825
407.144240	1.000262
407.525447	0.999450
407.906593	0.999701
408.287677	0.999790
408.668700	1.000617
409.049661	0.999776
409.430560	0.999277
409.811399	1.000338
410.192176	1.000253
410.572891	1.000606
410.953545	1.000217
411.334138	0.999906
411.714669	0.999951
412.095139	1.000292
412.475547	0.999786
412.855894	1.000060
413.236180	1.000047
413.616405	1.000268
413.996568	1.000650
414.376670	1.000933
414.756711	0.999837
415.136691	1.000249
415.516609	0.999476
415.896466	1.000128
416.276262	0.999787
416.655997	1.000182
417.035670	1.000938
417.415283	0.999552
417.794834	1.000138
418.174324	1.001088
418.553753	0.999796
418.933121	0.999936
419.312428	1.000225
419.691674	1.000863
420.070859	1.001684
420.449983	1.000841
420.829045	0.999643
421.208047	0.999923
421.586988	1.000402
421.965867	0.999767
422.344686	1.000329
422.723444	1.000176
423.102141	1.000368
423.480777	0.999219
423.859352	1.000249
424.237866	1.001001
424.616319	1.000513
424.994712	1.000501
425.373044	1.000628
425.751314	1.000669
426.129524	1.000057
426.507673	0.999634
426.885762	1.000398
427.263789	0.999799
427.641756	1.000506
428.019662	1.000415
428.397508	1.000348
428.775292	1.000122
429.153016	1.000441
429.530679	1.000592
429.908282	1.000839
430.285824	0.999909
430.663305	1.000821
431.040726	0.999879
431.418086	1.000216
431.795385	1.000542
432.172624	1.000821
432.549802	1.000757
432.926920	1.000253
433.303977	1.000984
433.680974	1.000896
434.057910	1.000166
434.434786	0.999826
434.811601	1.000109
435.188355	0.999902
435.565050	1.001344
435.941683	0.999884
436.318257	1.000163
436.694770	0.999695
437.071222	1.001403
437.447614	1.000193
437.823946	1.000803
438.200218	0.999992
438.576429	0.999437
438.952580	1.000122
439.328670	0.999539
439.704700	0.999889
440.080670	1.000949
440.456580	1.000614
440.832429	1.000430
441.208218	1.000748
441.583947	1.000168
441.959616	0.999669
442.335224	1.000715
442.710773	1.001001
443.086261	1.000707
443.461689	0.999924
443.837057	1.000319
444.212365	1.001182
444.587612	1.001758
444.962800	1.000218
445.337927	1.000850
445.712995	1.000399
446.088002	0.999369
446.462949	1.000599
446.837837	1.001741
447.212664	0.999782
447.587431	1.000648
447.962139	1.000437
448.336786	0.999461
448.711374	1.000259
449.085901	1.001443
449.460369	1.000524
449.834776	1.000793
450.209124	1.001517
450.583412	0.999995
450.957640	1.000217
451.331808	1.001006
451.705917	1.000161
452.079965	1.000404
452.453954	1.000898
452.827883	1.000931
453.201752	1.000451
453.575562	0.999864
453.949311	1.000008
454.323001	1.000080
454.696632	1.000189
455.070202	1.000310
455.443713	0.999862
455.817164	1.000636
456.190556	1.000106
456.563888	1.001396
456.937160	1.000076
457.310373	1.000473
457.683526	1.000067
458.056619	1.001041
458.429653	1.000145
458.802628	1.000162
459.175542	1.000095
459.548398	1.000476
459.921194	1.001140
460.293930	1.000849
460.666607	1.000937
461.039224	1.001229
461.411782	1.000847
461.784280	1.000673
462.156719	1.000949
462.529099	1.001216
462.901419	1.000681
463.273680	1.000804
463.645882	1.000094
464.018024	1.001694
464.390106	1.000701
464.762130	0.999721
465.134094	1.000977
465.505999	1.000989
465.877845	1.000346
466.249631	1.000639
466.621358	1.000027
466.993026	1.000698
467.364634	1.000819
467.736184	1.000842
468.107674	1.000055
468.479105	1.000582
468.850477	1.000848
469.221790	1.000312
469.593043	1.000481
469.964238	1.000358
470.335373	1.000086
470.706449	1.000200
471.077467	1.000548
471.448425	1.001504
471.819324	1.000862
472.190164	1.000676
472.560945	1.000078
472.931667	1.000326
473.302330	1.000117
473.672934	1.000873
474.043479	1.000636
474.413965	1.000670
474.784393	1.000798
475.154761	1.000536
475.525070	1.001000
475.895321	1.000942
476.265513	1.000239
476.635645	1.000865
477.005719	1.000622
477.375734	1.000870
477.745691	1.000901
478.115588	1.000195
478.485427	1.000362
478.855207	1.001289
479.224928	1.001243
479.594591	1.000828
479.964194	1.000979
480.333739	1.000660
480.703226	1.000384
481.072653	1.000797
481.442022	1.000887
481.811333	1.001473
482.180584	1.001192
482.549777	1.000911
482.918912	1.000623
483.287988	1.000612
483.657005	1.000365
484.025964	1.000856
484.394864	1.000302
484.763706	0.999857
485.132489	1.000618
485.501213	1.001569
485.869879	1.000957
486.238487	0.999575
486.607036	1.001958
486.975527	1.000447
487.343959	1.000225
487.712333	1.001332
488.080648	1.000534
488.448905	1.000259
488.817104	1.000295
489.185244	1.000118
489.553326	1.000226
489.921350	1.000572
490.289315	1.000252
490.657222	1.000118
491.025070	1.001181
491.392861	1.000934
491.760593	1.001222
492.128267	1.000890
492.495883	0.999402
492.863440	1.000751
493.230939	1.000784
493.598380	1.000931
493.965763	1.000744
494.333088	0.999947
494.700354	1.000434
495.067563	1.000776
495.434713	1.000422
495.801805	1.000316
496.168839	1.000379
496.535815	1.001090
496.902733	1.000529
497.269593	0.999884
497.636395	0.999622
498.003139	1.000280
498.369825	1.000496
498.736453	1.000692
499.103023	1.001142
499.469535	1.000148
499.835989	1.001460
500.202385	1.000878
500.568723	1.000480
500.935003	1.000553
501.301226	1.001390
501.667390	1.000110
502.033497	1.000331
502.399546	1.000622
502.765537	1.000964
503.131470	1.000720
503.497345	1.000776
503.863163	1.000593
504.228923	1.000425
504.594625	1.001329
504.960269	1.001228
505.325856	1.000991
505.691385	1.001103
506.056856	1.000932
506.422270	1.000513
506.787625	1.000399
507.152924	1.001028
507.518164	1.000331
507.883347	1.000414
508.248472	1.001098
508.613540	1.000561
508.978550	1.000752
509.343503	1.000849
509.708398	1.001213
510.073236	1.000932
510.438016	1.000065
510.802738	1.000170
511.167403	1.000447
511.532010	1.000337
511.896561	1.000695
512.261053	1.000343
512.625488	1.000699
512.989866	1.000308
513.354186	1.000249
513.718449	1.000428
514.082655	1.001019
514.446803	1.000571
514.810894	1.001204
515.174927	1.000953
515.538904	1.000793
515.902822	1.000278
516.266684	1.001112
516.630488	1.000271
516.994235	1.000428
517.357925	1.000839
517.721558	1.000409
518.085133	1.000215
518.448651	1.000518
518.812112	1.000907
519.175516	1.001245
519.538863	1.000147
519.902152	1.000476
520.265385	1.000823
520.628560	1.000578
520.991678	1.000964
521.354739	1.000405
521.717743	1.000014
522.080690	1.000898
522.443580	1.000302
522.806413	0.999911
523.169189	1.000475
523.531908	1.000198
523.894569	1.000173
524.257174	1.000092
524.619722	1.000876
524.982213	1.000637
525.344647	1.000184
525.707025	1.000216
526.069345	1.000049
526.431608	1.000601
526.793815	1.000042
527.155964	1.001111
527.518057	1.000516
527.880093	1.000102
528.242072	1.000420
528.603995	1.000586
528.965860	1.000647
529.327669	1.000900
529.689421	0.999712
530.051117	1.001074
530.412755	1.000013
530.774337	1.000235
531.135862	1.001133
531.497331	1.000467
531.858743	1.001143
532.220098	0.999728
532.581396	1.000400
532.942638	1.000804
533.303824	1.001159
533.664953	1.000410
534.026025	1.001056
534.387040	1.000475
534.747999	0.999708
535.108902	1.000085
535.469748	1.001161
535.830537	1.001084
536.191270	1.000408
536.551947	1.000913
536.912567	1.001007
537.273131	1.001251
537.633638	1.000360
537.994089	1.000723
538.354483	1.000521
538.714821	1.001010
539.075103	1.000718
539.435328	1.000727
539.795497	1.000532
540.155609	1.000541
540.515665	1.000784
540.875665	0.999798
541.235609	1.000833
541.595496	0.999913
541.955328	1.000608
542.315102	1.001021
542.674821	1.001168
543.034483	1.001445
543.394090	1.000088
543.753640	1.000584
544.113134	1.000815
544.472571	1.001041
544.831953	1.000518
545.191278	1.000827
545.550548	1.000038
545.909761	1.000023
546.268918	1.001223
546.628019	1.001089
546.987064	1.000685
547.346053	1.000050
547.704986	1.000200
548.063863	1.000646
548.422684	1.001539
548.781449	1.000845
549.140158	1.000482
549.498811	0.999927
549.857408	0.999904
550.215949	0.999978
550.574434	1.000575
550.932864	1.000857
551.291237	1.000394
551.649555	1.000835
552.007817	1.000982
552.366022	1.001118
552.724173	1.001367
553.082267	1.000557
553.440305	1.000396
553.798288	1.000282
554.156215	1.000389
554.514086	1.000861
554.871902	1.000664
555.229661	0.999827
555.587365	1.000133
555.945014	1.000626
556.302606	1.000098
556.660143	1.000675
557.017625	1.001571
557.375050	1.000282
557.732421	1.000767
558.089735	1.000520
558.446994	0.999924
558.804197	1.000467
559.161345	0.999785
559.518437	1.000518
559.875474	1.000635
560.232455	1.000963
560.589381	1.000911
560.946251	0.999868
561.303065	1.001223
561.659825	1.000085
562.016528	1.000698
562.373177	1.000418
562.729770	1.000730
563.086307	0.999717
563.442789	1.001042
563.799216	1.000437
564.155587	1.000867
564.511904	1.001236
564.868164	0.999549
565.224370	1.000767
565.580520	1.000478
565.936615	1.000614
566.292654	1.000416
566.648638	1.001413
567.004567	1.000094
567.360441	1.001306
567.716260	1.001195
568.072023	1.000559
568.427732	1.000933
568.783385	1.000036
569.138982	1.001224
569.494525	1.000769
569.850013	1.001000
570.205445	1.001017
570.560823	1.001064
570.916145	1.000337
571.271412	0.999928
571.626625	1.000747
571.981782	1.000424
572.336884	1.001038
572.691931	1.000305
573.046923	1.001803
573.401860	1.000044
573.756743	1.000687
574.111570	1.001193
574.466342	1.001350
574.821059	1.000616
575.175722	1.001544
575.530330	1.000926
575.884882	1.000331
576.239380	1.000343
576.593823	1.000005
576.948211	1.000607
577.302544	1.000325
577.656823	1.000933
578.011047	0.999814
578.365216	1.001254
578.719330	1.000729
579.073389	0.999552
579.427394	1.000475
579.781344	1.001129
580.135239	1.000511
580.489080	1.001094
580.842866	1.001325
581.196597	1.000890
581.550273	1.000271
581.903895	1.000655
582.257463	1.000584
582.610975	1.000519
582.964434	1.000992
583.317837	1.001032
583.671186	1.001130
584.024481	1.000474
584.377721	0.999882
584.730906	1.000740
585.084037	1.001480
585.437113	1.000328
585.790135	1.000731
586.143103	1.000888
586.496016	1.000643
586.848874	1.001020
587.201679	1.001099
587.554428	1.001137
587.907124	1.000667
588.259765	1.000986
588.612352	1.001462
588.964884	1.001027
589.317362	1.001103
589.669786	1.000257
590.022155	1.000310
590.374470	1.000220
590.726731	1.000237
591.078937	1.001096
591.431090	1.000477
591.783188	1.000127
592.135232	1.000404
592.487222	1.000971
592.839157	1.000459
593.191038	1.001149
593.542866	1.000047
593.894639	0.999509
594.246358	1.001140
594.598022	1.001013
594.949633	1.000739
595.301190	1.000236
595.652692	1.000249
596.004141	0.999929
596.355535	1.000639
596.706876	1.000447
597.058162	1.000846
597.409395	1.000936
597.760573	1.000945
598.111698	1.000769
598.462768	0.999970
598.813785	1.000012
599.164748	1.001304
599.515657	1.000685
599.866511	1.000269
600.217312	1.001534
600.568060	1.000907
600.918753	1.000526
601.269392	1.000160
601.619978	1.001037
601.970510	1.000988
602.320988	1.001021
602.671412	1.000119
603.021783	1.001146
603.372100	1.001720
603.722363	1.001262
604.072572	1.000878
604.422728	1.000430
604.772830	1.000883
605.122878	1.000634
605.472872	1.001121
605.822813	1.000273
606.172701	1.000897
606.522534	1.000835
606.872314	1.001723
607.222041	1.000507
607.571714	1.000651
607.921333	1.001280
608.270899	1.000412
608.620411	1.001161
608.969870	1.001696
609.319276	1.001005
609.668627	1.001384
610.017926	1.000843
610.367171	1.000644
610.716362	1.000432
611.065500	1.000387
611.414585	1.000859
611.763616	1.000203
612.112594	1.000535
612.461518	1.000106
612.810389	1.000518
613.159207	1.000430
613.507971	0.999917
613.856682	1.001396
614.205340	0.999695
614.553945	1.000878
614.902496	1.000228
615.250994	1.000996
615.599439	1.001090
615.947830	1.000563
616.296169	1.001139
616.644454	1.000888
616.992686	1.001485
617.340864	1.000698
617.688990	1.000415
618.037063	1.000859
618.385082	1.000593
618.733048	1.000230
619.080961	1.000674
619.428821	1.001186
619.776628	1.000820
620.124382	1.000720
620.472083	1.000904
620.819731	1.001426
621.167326	1.000658
621.514868	1.001100
621.862357	1.000927
622.209793	1.000708
622.557176	1.001152
622.904506	1.000068
623.251783	1.000543
623.599007	1.001568
623.946179	1.000237
624.293297	1.000905
624.640363	1.001047
624.987376	0.999687
625.334336	1.000692
625.681243	1.000105
626.028097	1.000595
626.374899	1.000523
626.721647	1.000873
627.068343	1.000479
627.414987	1.001446
627.761577	0.999762
628.108115	1.000485
628.454600	1.000947
628.801032	1.000635
629.147412	1.000943
629.493739	1.001861
629.840014	1.000813
630.186236	1.000364
630.532405	1.000493
630.878521	1.000414
631.224585	1.000053
631.570597	1.000327
631.916556	1.000604
632.262462	0.999714
632.608316	1.001594
632.954117	1.000332
633.299866	1.001163
633.645562	1.000800
633.991206	1.001179
634.336797	1.001102
634.682336	1.000398
635.027823	1.000294
635.373257	1.000677
635.718639	1.001470
636.063968	1.001061
636.409245	1.000482
636.754470	1.000757
637.099642	1.001489
637.444762	1.000624
637.789829	1.001286
638.134845	0.999722
638.479808	1.001729
638.824719	1.001051
639.169577	1.001012
639.514383	1.000868
639.859137	1.001219
640.203839	1.000525
640.548489	1.000048
640.893086	1.000707
641.237632	1.001538
641.582125	0.999861
641.926566	1.001750
642.270955	1.001276
642.615292	0.999763
642.959576	0.999857
643.303809	1.001082
643.647990	1.000619
643.992118	1.000520
644.336195	1.000297
644.680219	1.000259
645.024192	1.000433
645.368112	1.000138
645.711981	1.000044
646.055797	1.000785
646.399562	0.999820
646.743274	1.001042
647.086935	1.000698
647.430544	0.999457
647.774101	1.000631
648.117606	1.000913
648.461059	1.000865
648.804460	1.000644
649.147810	1.000612
649.491108	1.000743
649.834354	1.000509
650.177548	1.000281
650.520690	1.000520
650.863781	1.000467
651.206820	1.000750
651.549807	1.000500
651.892742	1.001502
652.235626	1.000738
652.578458	1.001213
652.921238	1.001122
653.263967	1.001080
653.606644	1.000231
653.949269	1.000756
654.291843	1.000097
654.634365	1.001418
654.976836	1.000102
655.319255	1.000929
655.661622	1.001038
656.003938	1.000085
656.346203	0.999625
656.688416	1.000953
657.030577	1.000565
657.372687	1.000943
657.714746	0.999495
658.056753	1.000338
658.398708	1.000009
658.740612	1.001307
659.082465	1.000514
659.424266	1.000324
659.766016	1.000914
660.107715	1.001804
660.449362	1.000739
660.790958	1.000189
661.132503	1.001184
661.473996	1.000317
661.815438	1.001089
662.156829	1.001277
662.498168	1.000799
662.839456	0.999532
663.180693	1.000647
663.521879	0.999922
663.863013	1.000829
664.204097	0.999864
664.545129	1.000113
664.886110	1.001279
665.227040	1.000338
665.567918	1.000178
665.908746	1.000502
666.249522	1.000285
666.590248	0.999873
666.930922	0.999853
667.271545	1.000523
667.612118	1.000131
667.952639	1.000727
668.293109	1.000102
668.633528	1.000729
668.973896	1.000312
669.314213	0.999607
669.654480	1.000703
669.994695	1.000498
670.334859	0.999971
670.674973	1.000864
671.015035	1.001324
671.355047	1.000669
671.695008	1.000296
672.034918	1.000262
672.374777	1.001186
672.714585	0.999745
673.054342	1.000906
673.394049	0.999981
673.733705	1.000786
674.073310	1.000613
674.412864	1.000548
674.752368	1.000308
675.091820	1.001085
675.431223	1.000542
675.770574	0.999050
676.109875	1.000258
676.449125	1.000306
676.788324	1.000300
677.127473	1.000738
677.466571	1.001202
677.805619	1.001227
678.144616	1.000638
678.483562	1.000459
678.822458	1.000891
679.161303	0.999520
679.500098	1.000986
679.838842	1.000798
680.177535	0.999961
680.516179	0.999764
680.854771	1.000465
681.193314	0.999665
681.531805	1.000443
681.870247	1.000358
682.208638	1.000415
682.546978	1.000500
682.885268	0.999954
683.223508	1.000361
683.561697	0.999684
683.899836	1.000527
684.237925	0.999592
684.575963	1.000239
684.913951	0.999867
685.251889	0.999537
685.589776	1.000602
685.927614	1.000696
686.265401	1.000618
686.603137	1.000488
686.940824	1.000307
687.278460	1.000261
687.616046	0.999059
687.953582	1.000255
688.291068	1.000866
688.628504	1.000234
