Dividing Wavelength (nm)	Counts (n)	Blue Motor Position (mm): 46.500000	Red Motor Position (mm): 0.000000	
326.493990	0.999254
326.888308	0.999254
327.282561	0.999254
327.676750	1.001028
328.070874	1.000770
328.464933	1.001119
328.858929	1.000872
329.252859	1.000274
329.646726	0.999822
330.040528	0.999278
330.434265	0.999349
330.827938	0.998987
331.221547	1.000001
331.615091	1.000667
332.008571	1.000432
332.401986	1.000053
332.795338	0.999745
333.188625	1.000280
333.581847	1.000307
333.975006	1.001303
334.368100	1.000143
334.761129	0.999081
335.154095	1.000358
335.546996	0.999895
335.939833	0.999868
336.332606	1.000705
336.725315	0.999025
337.117960	1.000094
337.510540	0.998894
337.903056	1.000071
338.295508	1.000767
338.687896	1.000952
339.080220	0.999383
339.472480	1.000289
339.864676	1.000535
340.256807	0.999013
340.648875	1.000797
341.040879	0.999300
341.432818	0.999885
341.824694	0.999221
342.216506	1.000596
342.608253	0.999914
342.999937	0.999411
343.391557	0.999883
343.783113	1.001126
344.174605	0.999746
344.566033	0.999634
344.957397	1.000633
345.348697	1.000070
345.739934	1.000819
346.131106	1.000127
346.522215	0.999286
346.913260	0.999813
347.304241	0.998770
347.695159	1.000673
348.086012	1.000284
348.476802	0.999386
348.867528	0.998402
349.258191	1.000908
349.648789	0.999773
350.039324	1.001463
350.429796	1.000046
350.820203	0.998414
351.210548	1.000713
351.600828	1.000531
351.991045	1.000362
352.381198	0.999447
352.771288	0.998778
353.161314	1.000793
353.551276	0.999119
353.941175	0.997349
354.331010	0.999627
354.720782	0.999797
355.110490	1.000379
355.500135	1.000170
355.889717	0.998509
356.279235	0.999174
356.668689	0.998590
357.058080	1.000584
357.447408	0.999101
357.836672	0.999004
358.225873	1.000098
358.615010	0.999413
359.004084	0.998758
359.393095	1.000087
359.782043	0.999467
360.170927	1.000277
360.559748	1.000013
360.948505	1.000303
361.337199	0.999772
361.725830	1.000148
362.114398	0.999234
362.502903	1.000178
362.891344	0.998497
363.279722	0.998553
363.668037	1.000728
364.056289	0.999779
364.444478	1.001005
364.832603	0.999333
365.220665	0.999627
365.608665	1.000136
365.996601	0.999195
366.384474	0.998717
366.772284	0.999297
367.160031	0.997602
367.547715	0.998518
367.935336	0.997227
368.322893	0.996928
368.710388	0.996727
369.097820	0.993642
369.485189	0.992113
369.872495	0.991462
370.259738	0.988636
370.646918	0.985634
371.034035	0.983460
371.421090	0.980805
371.808081	0.975934
372.195010	0.974719
372.581875	0.971154
372.968678	0.968315
373.355418	0.965278
373.742096	0.960664
374.128710	0.958141
374.515262	0.956018
374.901751	0.953312
375.288177	0.949983
375.674540	0.948622
376.060841	0.946066
376.447079	0.943112
376.833254	0.942182
377.219367	0.941274
377.605417	0.935000
377.991404	0.937717
378.377329	0.936308
378.763191	0.935318
379.148991	0.933033
379.534727	0.932463
379.920402	0.930941
380.306013	0.932033
380.691563	0.932142
381.077049	0.930947
381.462474	0.933320
381.847835	0.933132
382.233134	0.935692
382.618371	0.939966
383.003545	0.937199
383.388657	0.940741
383.773706	0.942925
384.158693	0.945600
384.543618	0.948830
384.928480	0.949613
385.313280	0.952750
385.698017	0.954528
386.082692	0.956570
386.467305	0.959795
386.851856	0.964975
387.236344	0.965284
387.620770	0.968966
388.005133	0.970820
388.389435	0.973357
388.773674	0.975701
389.157851	0.978236
389.541965	0.980442
389.926018	0.982796
390.310008	0.985114
390.693936	0.987057
391.077802	0.988013
391.461606	0.988780
391.845348	0.990831
392.229027	0.990344
392.612645	0.992933
392.996200	0.993952
393.379694	0.993839
393.763125	0.995592
394.146494	0.995998
394.529801	0.995866
394.913047	0.996765
395.296230	0.996779
395.679351	0.997979
396.062410	0.998844
396.445408	0.998748
396.828343	0.999217
397.211217	0.999215
397.594028	0.999283
397.976778	1.000157
398.359466	0.999862
398.742092	1.000723
399.124656	0.998205
399.507158	0.998538
399.889598	1.000352
400.271977	1.000430
400.654294	0.999090
401.036549	0.999925
401.418742	1.000443
401.800874	1.000355
402.182944	0.999762
402.564952	1.000434
402.946898	1.000096
403.328783	1.000461
403.710606	1.000033
404.092367	1.001069
404.474067	1.000345
404.855705	1.000312
405.237282	1.000099
405.618797	1.000753
406.000250	1.000672
406.381642	0.999646
406.762972	1.000666
407.144240	1.000933
407.525447	0.998848
407.906593	1.000638
408.287677	1.000325
408.668700	1.000271
409.049661	1.000624
409.430560	1.000035
409.811399	1.000352
410.192176	1.000707
410.572891	1.000923
410.953545	0.999677
411.334138	1.000259
411.714669	1.000134
412.095139	1.000792
412.475547	1.000051
412.855894	1.000783
413.236180	0.999982
413.616405	1.000320
413.996568	0.999913
414.376670	1.000697
414.756711	1.001256
415.136691	1.000041
415.516609	1.000571
415.896466	1.001328
416.276262	0.999512
416.655997	1.000718
417.035670	1.001456
417.415283	0.999853
417.794834	1.000603
418.174324	1.000901
418.553753	1.001040
418.933121	1.000415
419.312428	1.000995
419.691674	1.001695
420.070859	1.001683
420.449983	1.001044
420.829045	0.999878
421.208047	1.000732
421.586988	1.000345
421.965867	0.999264
422.344686	1.000610
422.723444	1.000401
423.102141	1.000939
423.480777	1.000594
423.859352	1.000717
424.237866	1.000848
424.616319	1.000992
424.994712	1.000579
425.373044	1.000733
425.751314	1.000638
426.129524	1.001696
426.507673	0.999870
426.885762	1.000364
427.263789	1.000407
427.641756	1.000253
428.019662	1.001007
428.397508	1.000511
428.775292	1.000377
429.153016	1.001183
429.530679	1.001216
429.908282	1.000759
430.285824	1.000310
430.663305	1.000850
431.040726	1.001380
431.418086	1.001156
431.795385	1.000890
432.172624	1.001307
432.549802	1.000656
432.926920	1.000349
433.303977	1.000177
433.680974	1.001279
434.057910	1.001166
434.434786	1.000705
434.811601	1.001023
435.188355	1.000503
435.565050	1.000993
435.941683	0.999822
436.318257	1.000562
436.694770	1.000922
437.071222	1.001687
437.447614	1.001116
437.823946	1.001059
438.200218	1.000959
438.576429	1.000247
438.952580	1.001390
439.328670	1.000454
439.704700	1.000147
440.080670	1.000596
440.456580	1.001457
440.832429	1.000820
441.208218	1.000912
441.583947	1.001007
441.959616	1.000696
442.335224	1.002015
442.710773	1.001374
443.086261	1.001327
443.461689	1.000534
443.837057	1.000493
444.212365	1.001545
444.587612	1.001507
444.962800	1.000510
445.337927	1.002011
445.712995	1.000960
446.088002	1.000738
446.462949	1.000284
446.837837	1.002102
447.212664	1.000754
447.587431	1.001187
447.962139	1.000774
448.336786	1.000667
448.711374	1.000733
449.085901	1.001764
449.460369	1.001169
449.834776	1.000201
450.209124	1.001077
450.583412	1.001547
450.957640	1.000801
451.331808	1.000898
451.705917	1.000790
452.079965	1.000771
452.453954	1.001511
452.827883	1.001300
453.201752	1.001181
453.575562	1.001011
453.949311	1.000965
454.323001	1.001031
454.696632	1.000741
455.070202	1.000274
455.443713	1.000998
455.817164	1.001666
456.190556	1.000925
456.563888	1.001608
456.937160	1.001031
457.310373	1.000551
457.683526	1.000836
458.056619	1.000822
458.429653	1.000402
458.802628	1.000183
459.175542	1.001124
459.548398	1.001192
459.921194	1.001086
460.293930	1.001461
460.666607	1.001064
461.039224	1.001035
461.411782	1.001052
461.784280	1.000651
462.156719	1.001401
462.529099	1.001043
462.901419	1.001298
463.273680	1.001011
463.645882	1.000727
464.018024	1.001963
464.390106	1.000520
464.762130	1.001596
465.134094	1.000545
465.505999	1.000849
465.877845	1.000933
466.249631	1.000487
466.621358	1.000378
466.993026	1.001146
467.364634	1.001068
467.736184	1.001427
468.107674	1.001175
468.479105	1.001303
468.850477	1.001756
469.221790	1.001997
469.593043	1.000784
469.964238	1.000969
470.335373	1.001377
470.706449	1.000877
471.077467	1.000856
471.448425	1.001598
471.819324	1.001163
472.190164	1.001352
472.560945	1.001639
472.931667	1.000894
473.302330	1.001558
473.672934	1.001162
474.043479	1.001095
474.413965	1.001032
474.784393	1.001232
475.154761	1.000626
475.525070	1.001086
475.895321	1.001989
476.265513	1.001098
476.635645	1.001938
477.005719	1.000726
477.375734	1.001125
477.745691	1.000768
478.115588	1.001337
478.485427	1.001070
478.855207	1.001157
479.224928	1.000929
479.594591	1.000974
479.964194	1.001323
480.333739	1.001895
480.703226	1.000236
481.072653	1.000552
481.442022	1.001487
481.811333	1.001111
482.180584	1.001212
482.549777	1.001291
482.918912	1.000843
483.287988	1.001271
483.657005	1.000698
484.025964	1.001370
484.394864	1.001310
484.763706	1.001066
485.132489	1.001621
485.501213	1.001593
485.869879	1.001376
486.238487	1.001010
486.607036	1.001655
486.975527	1.001151
487.343959	1.000971
487.712333	1.000974
488.080648	1.001180
488.448905	1.001580
488.817104	1.000790
489.185244	1.001949
489.553326	1.001171
489.921350	1.000939
490.289315	1.000651
490.657222	1.000824
491.025070	1.001317
491.392861	1.001332
491.760593	1.000911
492.128267	1.000916
492.495883	1.000375
492.863440	1.001523
493.230939	1.000902
493.598380	1.001697
493.965763	1.001082
494.333088	1.000635
494.700354	1.000993
495.067563	1.001244
495.434713	1.001047
495.801805	1.000037
496.168839	1.001545
496.535815	1.001290
496.902733	1.001300
497.269593	1.000757
497.636395	1.000290
498.003139	1.000529
498.369825	1.001111
498.736453	1.000666
499.103023	1.001036
499.469535	1.001458
499.835989	1.001122
500.202385	1.000698
500.568723	1.001400
500.935003	1.001299
501.301226	1.001157
501.667390	1.000467
502.033497	1.001314
502.399546	1.001056
502.765537	1.000724
503.131470	1.000649
503.497345	1.001705
503.863163	1.000774
504.228923	1.001133
504.594625	1.000564
504.960269	1.001444
505.325856	1.002019
505.691385	1.001507
506.056856	1.001367
506.422270	1.000519
506.787625	1.001160
507.152924	1.001912
507.518164	1.000969
507.883347	1.000474
508.248472	1.000911
508.613540	1.000610
508.978550	1.001825
509.343503	1.001017
509.708398	1.001941
510.073236	1.001106
510.438016	1.000446
510.802738	1.001149
511.167403	1.001219
511.532010	1.001026
511.896561	1.001291
512.261053	1.000244
512.625488	1.001232
512.989866	1.001049
513.354186	1.000934
513.718449	1.000983
514.082655	1.000412
514.446803	1.001074
514.810894	1.001027
515.174927	1.001481
515.538904	1.001437
515.902822	1.001715
516.266684	1.001405
516.630488	1.001037
516.994235	1.001841
517.357925	1.001744
517.721558	1.001479
518.085133	1.000988
518.448651	1.000842
518.812112	1.001851
519.175516	1.001345
519.538863	1.001257
519.902152	1.001169
520.265385	1.001334
520.628560	1.000558
520.991678	1.001055
521.354739	1.001542
521.717743	1.001441
522.080690	1.000719
522.443580	1.001303
522.806413	1.001055
523.169189	1.001871
523.531908	1.000856
523.894569	1.000973
524.257174	1.001470
524.619722	1.001533
524.982213	1.001282
525.344647	1.000863
525.707025	1.000692
526.069345	1.000206
526.431608	1.001201
526.793815	1.001234
527.155964	1.001159
527.518057	1.001013
527.880093	1.000473
528.242072	1.001170
528.603995	1.001585
528.965860	1.001478
529.327669	1.001264
529.689421	1.000608
530.051117	1.001657
530.412755	1.001343
530.774337	1.000687
531.135862	1.001500
531.497331	1.000885
531.858743	1.001727
532.220098	1.000438
532.581396	1.001499
532.942638	1.000791
533.303824	1.001608
533.664953	1.000637
534.026025	1.001689
534.387040	1.001249
534.747999	1.001214
535.108902	1.001454
535.469748	1.001971
535.830537	1.001023
536.191270	1.001790
536.551947	1.000987
536.912567	1.001283
537.273131	1.001914
537.633638	1.001069
537.994089	1.001517
538.354483	1.001351
538.714821	1.001179
539.075103	1.001133
539.435328	1.001798
539.795497	1.001968
540.155609	1.000971
540.515665	1.001305
540.875665	1.001456
541.235609	1.001233
541.595496	1.000315
541.955328	1.000813
542.315102	1.001612
542.674821	1.001022
543.034483	1.001104
543.394090	1.001199
543.753640	1.001909
544.113134	1.001241
544.472571	1.001276
544.831953	1.001386
545.191278	1.000999
545.550548	1.000418
545.909761	1.001036
546.268918	1.002521
546.628019	1.001769
546.987064	1.000989
547.346053	1.000512
547.704986	1.000930
548.063863	1.001267
548.422684	1.001218
548.781449	1.001349
549.140158	1.000887
549.498811	1.000903
549.857408	1.000728
550.215949	1.000177
550.574434	1.000869
550.932864	1.001356
551.291237	1.001408
551.649555	1.001131
552.007817	1.000703
552.366022	1.001626
552.724173	1.001486
553.082267	1.001488
553.440305	1.000803
553.798288	1.000856
554.156215	1.000881
554.514086	1.001038
554.871902	1.001756
555.229661	1.000689
555.587365	1.001284
555.945014	1.001263
556.302606	1.000743
556.660143	1.001494
557.017625	1.001253
557.375050	1.000599
557.732421	1.001109
558.089735	1.000414
558.446994	1.000467
558.804197	1.000880
559.161345	1.000757
559.518437	1.000782
559.875474	1.001050
560.232455	1.001416
560.589381	1.001523
560.946251	1.000664
561.303065	1.001706
561.659825	1.000568
562.016528	1.001361
562.373177	1.001569
562.729770	1.001600
563.086307	1.000721
563.442789	1.001701
563.799216	1.000648
564.155587	1.001601
564.511904	1.001634
564.868164	1.000824
565.224370	1.001151
565.580520	1.001067
565.936615	1.001729
566.292654	1.000953
566.648638	1.001506
567.004567	1.001152
567.360441	1.001716
567.716260	1.001439
568.072023	1.000637
568.427732	1.001131
568.783385	1.001074
569.138982	1.001317
569.494525	1.001355
569.850013	1.002178
570.205445	1.001295
570.560823	1.001094
570.916145	1.001139
571.271412	1.001171
571.626625	1.001066
571.981782	1.001170
572.336884	1.001857
572.691931	1.001317
573.046923	1.001608
573.401860	1.001108
573.756743	1.001124
574.111570	1.001087
574.466342	1.002045
574.821059	1.001506
575.175722	1.001579
575.530330	1.001183
575.884882	1.001620
576.239380	1.001044
576.593823	1.001069
576.948211	1.001577
577.302544	1.001080
577.656823	1.001452
578.011047	1.001170
578.365216	1.001910
578.719330	1.001385
579.073389	1.000289
579.427394	1.001411
579.781344	1.001134
580.135239	1.000692
580.489080	1.001358
580.842866	1.002068
581.196597	1.000878
581.550273	1.001266
581.903895	1.001468
582.257463	1.000875
582.610975	1.001181
582.964434	1.001446
583.317837	1.002200
583.671186	1.001398
584.024481	1.001181
584.377721	1.000412
584.730906	1.001923
585.084037	1.001840
585.437113	1.001776
585.790135	1.001620
586.143103	1.001179
586.496016	1.000711
586.848874	1.001876
587.201679	1.001345
587.554428	1.001215
587.907124	1.001663
588.259765	1.000769
588.612352	1.001131
588.964884	1.001218
589.317362	1.001064
589.669786	1.001078
590.022155	1.000948
590.374470	1.001309
590.726731	1.000707
591.078937	1.002200
591.431090	1.001269
591.783188	1.001188
592.135232	1.001848
592.487222	1.001828
592.839157	1.000145
593.191038	1.001293
593.542866	1.001787
593.894639	1.000438
594.246358	1.001558
594.598022	1.001282
594.949633	1.001114
595.301190	1.001017
595.652692	1.000800
596.004141	1.000561
596.355535	1.001360
596.706876	1.001491
597.058162	1.001445
597.409395	1.001415
597.760573	1.000327
598.111698	1.001021
598.462768	1.000691
598.813785	1.000476
599.164748	1.000881
599.515657	1.001176
599.866511	1.001189
600.217312	1.001760
600.568060	1.000681
600.918753	1.002045
601.269392	1.001428
601.619978	1.001471
601.970510	1.001190
602.320988	1.001233
602.671412	1.000700
603.021783	1.000814
603.372100	1.001410
603.722363	1.000901
604.072572	1.000896
604.422728	1.001224
604.772830	1.000765
605.122878	1.001080
605.472872	1.001301
605.822813	1.001589
606.172701	1.001279
606.522534	1.001806
606.872314	1.001813
607.222041	1.001247
607.571714	1.001300
607.921333	1.001350
608.270899	1.000954
608.620411	1.001176
608.969870	1.001888
609.319276	1.000824
609.668627	1.001534
610.017926	1.001016
610.367171	1.001365
610.716362	1.001221
611.065500	1.001095
611.414585	1.001158
611.763616	1.000949
612.112594	1.000672
612.461518	1.000486
612.810389	1.001134
613.159207	1.001464
613.507971	1.000699
613.856682	1.002307
614.205340	1.000459
614.553945	1.001129
614.902496	1.001063
615.250994	1.001122
615.599439	1.001442
615.947830	1.000448
616.296169	1.001401
616.644454	1.001119
616.992686	1.001633
617.340864	1.002234
617.688990	1.000868
618.037063	1.001176
618.385082	1.000738
618.733048	0.999821
619.080961	1.001179
619.428821	1.001836
619.776628	1.000794
620.124382	1.001718
620.472083	1.000978
620.819731	1.001801
621.167326	1.001365
621.514868	1.001781
621.862357	1.001011
622.209793	1.001543
622.557176	1.001029
622.904506	1.000784
623.251783	1.001209
623.599007	1.000910
623.946179	1.000005
624.293297	1.001495
624.640363	1.001221
624.987376	1.000847
625.334336	1.001629
625.681243	1.001271
626.028097	1.001230
626.374899	1.001617
626.721647	1.002206
627.068343	1.000710
627.414987	1.000791
627.761577	1.000587
628.108115	1.000829
628.454600	1.000972
628.801032	1.001786
629.147412	1.001047
629.493739	1.001897
629.840014	1.000817
630.186236	1.001314
630.532405	1.001667
630.878521	1.000653
631.224585	1.000624
631.570597	1.000755
631.916556	1.001771
632.262462	0.999498
632.608316	1.001148
632.954117	1.000161
633.299866	1.001040
633.645562	1.001105
633.991206	1.001194
634.336797	1.000543
634.682336	1.001441
635.027823	1.000665
635.373257	1.001581
635.718639	1.001977
636.063968	1.000243
636.409245	1.000227
636.754470	1.001453
637.099642	1.001556
637.444762	1.001253
637.789829	1.000626
638.134845	0.999899
638.479808	1.000548
638.824719	1.000511
639.169577	1.001009
639.514383	1.001187
639.859137	1.001247
640.203839	1.000231
640.548489	1.001075
640.893086	1.000620
641.237632	1.001341
641.582125	1.000936
641.926566	1.001008
642.270955	1.001714
642.615292	1.000712
642.959576	1.000937
643.303809	1.000891
643.647990	1.001549
643.992118	1.001460
644.336195	0.999871
644.680219	1.000240
645.024192	1.000569
645.368112	1.000034
645.711981	1.000544
646.055797	1.001117
646.399562	1.000388
646.743274	1.000952
647.086935	1.000570
647.430544	1.000512
647.774101	1.000315
648.117606	1.001119
648.461059	1.001510
648.804460	1.000987
649.147810	1.000035
649.491108	1.001085
649.834354	1.001483
650.177548	1.001134
650.520690	1.000676
650.863781	1.000087
651.206820	1.001218
651.549807	1.000372
651.892742	1.001114
652.235626	1.000630
652.578458	1.000945
652.921238	1.001841
653.263967	1.001525
653.606644	1.000717
653.949269	1.001146
654.291843	1.000384
654.634365	1.001888
654.976836	1.000536
655.319255	1.001085
655.661622	1.001231
656.003938	1.000652
656.346203	1.000367
656.688416	1.001597
657.030577	1.000018
657.372687	1.000173
657.714746	1.000603
658.056753	1.000466
658.398708	1.000239
658.740612	1.001563
659.082465	0.999980
659.424266	1.000508
659.766016	0.999420
660.107715	1.001713
660.449362	1.000423
660.790958	1.000021
661.132503	1.001320
661.473996	1.000207
661.815438	1.001718
662.156829	1.001149
662.498168	1.001491
662.839456	0.999849
663.180693	0.999899
663.521879	1.000704
663.863013	1.000395
664.204097	0.999971
664.545129	1.000223
664.886110	1.000911
665.227040	1.000236
665.567918	1.000123
665.908746	1.000235
666.249522	0.999889
666.590248	1.000886
666.930922	1.000308
667.271545	1.000501
667.612118	1.000523
667.952639	1.000859
668.293109	0.999948
668.633528	0.999434
668.973896	1.001190
669.314213	1.001223
669.654480	1.000198
669.994695	0.999366
670.334859	1.000558
670.674973	1.000195
671.015035	1.001368
671.355047	1.000200
671.695008	1.000584
672.034918	1.000509
672.374777	1.000756
672.714585	1.000743
673.054342	1.000539
673.394049	1.000773
673.733705	1.000309
674.073310	1.000656
674.412864	0.999794
674.752368	1.000278
675.091820	1.001622
675.431223	1.001698
675.770574	1.000661
676.109875	1.000476
676.449125	0.999518
676.788324	0.999895
677.127473	1.000659
677.466571	1.000460
677.805619	1.001109
678.144616	1.001106
678.483562	1.000976
678.822458	1.000830
679.161303	0.999880
679.500098	1.000687
679.838842	1.000548
680.177535	0.999256
680.516179	1.000007
680.854771	1.000195
681.193314	1.000498
681.531805	0.999290
681.870247	1.000693
682.208638	1.000480
682.546978	0.999391
682.885268	0.999679
683.223508	1.000012
683.561697	1.000143
683.899836	1.000352
684.237925	0.999677
684.575963	1.000284
684.913951	0.999503
685.251889	1.000534
685.589776	0.999387
685.927614	0.999688
686.265401	1.000006
686.603137	0.999467
686.940824	1.000024
687.278460	1.000803
687.616046	0.999767
687.953582	0.999917
688.291068	1.000676
688.628504	1.000908
