Dividing Wavelength (nm)	Counts (n)	Blue Motor Position (mm): 46.200000	Red Motor Position (mm): 0.000000	
326.493990	1.000331
326.888308	1.000331
327.282561	1.000331
327.676750	1.000810
328.070874	1.001806
328.464933	1.002023
328.858929	1.000658
329.252859	0.999370
329.646726	0.999374
330.040528	1.000104
330.434265	1.000237
330.827938	1.000119
331.221547	1.000441
331.615091	1.000831
332.008571	1.001603
332.401986	0.999029
332.795338	0.999966
333.188625	1.000638
333.581847	1.000695
333.975006	1.000643
334.368100	1.001222
334.761129	0.999706
335.154095	1.000518
335.546996	1.000679
335.939833	0.998916
336.332606	1.000112
336.725315	0.999901
337.117960	1.002464
337.510540	0.999999
337.903056	1.000167
338.295508	1.001680
338.687896	1.000968
339.080220	1.000262
339.472480	1.000547
339.864676	1.001081
340.256807	1.000181
340.648875	1.000685
341.040879	1.000188
341.432818	0.999785
341.824694	1.000446
342.216506	1.000565
342.608253	1.000462
342.999937	1.000521
343.391557	1.001492
343.783113	1.000695
344.174605	1.001841
344.566033	0.999964
344.957397	1.000610
345.348697	1.000558
345.739934	1.000843
346.131106	1.001149
346.522215	0.999270
346.913260	1.000669
347.304241	0.998450
347.695159	1.000596
348.086012	1.000118
348.476802	1.000410
348.867528	1.000001
349.258191	1.001064
349.648789	0.999886
350.039324	1.000407
350.429796	0.999074
350.820203	0.999534
351.210548	1.000338
351.600828	0.999771
351.991045	0.999648
352.381198	1.001280
352.771288	1.000146
353.161314	1.000622
353.551276	0.998892
353.941175	0.999289
354.331010	1.002163
354.720782	1.000319
355.110490	1.000050
355.500135	1.001144
355.889717	1.000672
356.279235	0.999647
356.668689	1.001501
357.058080	0.999986
357.447408	0.999340
357.836672	0.998985
358.225873	1.000800
358.615010	0.999032
359.004084	0.999657
359.393095	1.000909
359.782043	1.000456
360.170927	1.001044
360.559748	1.000827
360.948505	0.999764
361.337199	0.999642
361.725830	1.000482
362.114398	0.999836
362.502903	1.000447
362.891344	0.999630
363.279722	0.999752
363.668037	1.000191
364.056289	0.999536
364.444478	1.001128
364.832603	1.000670
365.220665	1.000974
365.608665	0.999048
365.996601	0.998842
366.384474	0.998909
366.772284	1.000807
367.160031	0.998226
367.547715	0.999618
367.935336	0.998289
368.322893	0.997447
368.710388	0.995389
369.097820	0.994570
369.485189	0.991127
369.872495	0.991368
370.259738	0.988985
370.646918	0.985394
371.034035	0.984171
371.421090	0.980622
371.808081	0.976925
372.195010	0.974801
372.581875	0.969924
372.968678	0.966727
373.355418	0.964358
373.742096	0.958581
374.128710	0.955359
374.515262	0.953720
374.901751	0.950339
375.288177	0.946816
375.674540	0.944182
376.060841	0.941443
376.447079	0.937763
376.833254	0.936342
377.219367	0.935418
377.605417	0.929534
377.991404	0.930398
378.377329	0.927881
378.763191	0.928823
379.148991	0.926192
379.534727	0.924606
379.920402	0.922222
380.306013	0.923495
380.691563	0.922618
381.077049	0.922248
381.462474	0.924446
381.847835	0.922856
382.233134	0.925795
382.618371	0.929664
383.003545	0.928337
383.388657	0.929721
383.773706	0.932845
384.158693	0.934932
384.543618	0.939174
384.928480	0.940511
385.313280	0.942749
385.698017	0.945414
386.082692	0.947194
386.467305	0.950879
386.851856	0.955897
387.236344	0.957530
387.620770	0.961096
388.005133	0.963237
388.389435	0.966092
388.773674	0.968808
389.157851	0.972413
389.541965	0.974766
389.926018	0.977240
390.310008	0.978991
390.693936	0.981529
391.077802	0.984353
391.461606	0.985613
391.845348	0.986689
392.229027	0.987883
392.612645	0.988731
392.996200	0.991280
393.379694	0.992032
393.763125	0.993490
394.146494	0.994740
394.529801	0.995066
394.913047	0.995199
395.296230	0.997045
395.679351	0.996600
396.062410	0.997754
396.445408	0.998639
396.828343	0.998618
397.211217	0.998540
397.594028	0.998069
397.976778	0.999627
398.359466	0.999886
398.742092	1.000266
399.124656	0.998819
399.507158	0.999749
399.889598	1.000830
400.271977	1.000628
400.654294	0.999734
401.036549	1.001251
401.418742	1.000907
401.800874	1.000528
402.182944	0.999311
402.564952	1.000111
402.946898	1.000479
403.328783	1.000611
403.710606	1.000290
404.092367	1.000105
404.474067	1.000708
404.855705	1.001280
405.237282	1.000022
405.618797	1.000382
406.000250	1.000351
406.381642	1.000688
406.762972	1.001184
407.144240	1.001626
407.525447	0.999482
407.906593	1.000735
408.287677	1.000884
408.668700	1.000187
409.049661	1.000719
409.430560	1.000232
409.811399	1.000525
410.192176	1.000462
410.572891	1.001119
410.953545	1.000577
411.334138	1.000540
411.714669	0.999567
412.095139	1.001337
412.475547	1.000584
412.855894	1.000815
413.236180	1.000902
413.616405	1.000556
413.996568	1.000711
414.376670	1.000548
414.756711	0.999745
415.136691	1.001286
415.516609	1.000126
415.896466	1.001203
416.276262	1.000097
416.655997	1.000708
417.035670	1.001493
417.415283	1.000923
417.794834	1.000681
418.174324	1.001497
418.553753	1.001209
418.933121	1.000871
419.312428	1.001830
419.691674	1.001723
420.070859	1.001748
420.449983	1.001303
420.829045	1.000378
421.208047	1.001440
421.586988	1.000314
421.965867	1.000290
422.344686	1.000516
422.723444	1.000197
423.102141	1.000730
423.480777	1.000410
423.859352	1.000276
424.237866	1.001511
424.616319	1.000650
424.994712	1.000559
425.373044	1.000680
425.751314	1.001058
426.129524	1.001533
426.507673	1.000447
426.885762	1.000555
427.263789	1.000696
427.641756	1.000758
428.019662	1.000626
428.397508	1.000905
428.775292	1.000678
429.153016	1.000362
429.530679	1.001273
429.908282	1.001215
430.285824	1.000769
430.663305	1.001266
431.040726	1.001253
431.418086	1.000499
431.795385	1.001296
432.172624	1.001983
432.549802	1.001319
432.926920	1.000950
433.303977	1.000635
433.680974	1.001450
434.057910	1.000946
434.434786	1.001850
434.811601	1.001110
435.188355	1.001730
435.565050	1.002103
435.941683	1.000912
436.318257	1.000331
436.694770	1.000873
437.071222	1.001062
437.447614	1.000950
437.823946	1.000657
438.200218	1.001133
438.576429	1.000599
438.952580	1.000737
439.328670	1.001052
439.704700	1.000990
440.080670	1.001673
440.456580	1.001723
440.832429	1.001116
441.208218	1.001423
441.583947	1.000325
441.959616	1.000649
442.335224	1.001860
442.710773	1.001794
443.086261	1.001102
443.461689	1.000030
443.837057	1.000880
444.212365	1.001463
444.587612	1.001457
444.962800	1.001831
445.337927	1.001675
445.712995	1.000766
446.088002	1.001137
446.462949	1.001178
446.837837	1.003371
447.212664	1.000475
447.587431	1.002138
447.962139	1.001414
448.336786	1.000030
448.711374	1.001510
449.085901	1.001112
449.460369	1.002095
449.834776	1.001265
450.209124	1.001420
450.583412	1.001165
450.957640	1.000921
451.331808	1.001970
451.705917	1.000852
452.079965	1.001510
452.453954	1.001816
452.827883	1.001547
453.201752	1.001768
453.575562	1.000564
453.949311	1.002130
454.323001	1.001368
454.696632	1.001660
455.070202	1.001424
455.443713	1.001006
455.817164	1.001077
456.190556	1.001556
456.563888	1.002314
456.937160	1.001357
457.310373	1.000641
457.683526	1.000832
458.056619	1.001571
458.429653	1.000517
458.802628	1.001136
459.175542	1.001090
459.548398	1.000967
459.921194	1.001886
460.293930	1.002438
460.666607	1.002269
461.039224	1.001002
461.411782	1.001112
461.784280	1.000908
462.156719	1.002366
462.529099	1.001741
462.901419	1.001870
463.273680	1.000819
463.645882	1.001200
464.018024	1.001938
464.390106	1.001653
464.762130	1.001818
465.134094	1.001329
465.505999	1.001633
465.877845	1.000907
466.249631	1.001234
466.621358	1.000752
466.993026	1.001376
467.364634	1.001256
467.736184	1.001426
468.107674	1.002507
468.479105	1.001233
468.850477	1.001895
469.221790	1.001840
469.593043	1.001820
469.964238	1.001823
470.335373	1.002139
470.706449	1.002170
471.077467	1.001633
471.448425	1.001587
471.819324	1.001343
472.190164	1.001403
472.560945	1.002105
472.931667	1.001543
473.302330	1.001758
473.672934	1.001771
474.043479	1.001859
474.413965	1.001847
474.784393	1.001550
475.154761	1.001035
475.525070	1.002098
475.895321	1.001664
476.265513	1.001892
476.635645	1.001929
477.005719	1.001548
477.375734	1.001147
477.745691	1.001821
478.115588	1.001553
478.485427	1.001407
478.855207	1.001492
479.224928	1.001475
479.594591	1.001869
479.964194	1.001019
480.333739	1.001637
480.703226	1.001258
481.072653	1.001692
481.442022	1.002111
481.811333	1.001344
482.180584	1.002039
482.549777	1.001153
482.918912	1.001300
483.287988	1.001657
483.657005	1.000864
484.025964	1.001405
484.394864	1.001229
484.763706	1.001319
485.132489	1.001131
485.501213	1.001545
485.869879	1.001432
486.238487	1.000824
486.607036	1.001549
486.975527	1.001246
487.343959	1.000644
487.712333	1.001094
488.080648	1.000938
488.448905	1.001754
488.817104	1.000890
489.185244	1.000755
489.553326	1.001067
489.921350	1.001495
490.289315	1.001205
490.657222	1.000447
491.025070	1.001656
491.392861	1.001597
491.760593	1.001111
492.128267	1.001080
492.495883	1.000588
492.863440	1.001355
493.230939	1.001252
493.598380	1.001764
493.965763	1.001171
494.333088	1.000277
494.700354	1.000772
495.067563	1.000732
495.434713	1.001303
495.801805	1.001109
496.168839	1.001557
496.535815	1.001246
496.902733	1.001042
497.269593	1.000946
497.636395	1.000169
498.003139	1.001088
498.369825	1.001664
498.736453	1.001070
499.103023	1.001086
499.469535	1.001520
499.835989	1.001189
500.202385	1.000857
500.568723	1.001205
500.935003	1.001754
501.301226	1.001294
501.667390	1.000890
502.033497	1.001068
502.399546	1.001426
502.765537	1.000856
503.131470	1.000954
503.497345	1.001162
503.863163	1.001050
504.228923	1.000682
504.594625	1.001684
504.960269	1.001477
505.325856	1.001740
505.691385	1.001821
506.056856	1.001495
506.422270	1.000784
506.787625	1.001305
507.152924	1.001835
507.518164	1.001074
507.883347	1.001112
508.248472	1.001431
508.613540	1.000484
508.978550	1.001468
509.343503	1.001382
509.708398	1.001650
510.073236	1.001879
510.438016	1.001133
510.802738	1.000966
511.167403	1.000922
511.532010	1.001357
511.896561	1.001912
512.261053	1.001102
512.625488	1.001271
512.989866	1.000866
513.354186	1.000733
513.718449	1.001133
514.082655	1.001277
514.446803	1.001280
514.810894	1.001541
515.174927	1.001438
515.538904	1.001858
515.902822	1.000991
516.266684	1.000887
516.630488	1.001333
516.994235	1.001523
517.357925	1.001284
517.721558	1.001503
518.085133	1.001029
518.448651	1.001514
518.812112	1.001269
519.175516	1.001332
519.538863	1.000435
519.902152	1.002191
520.265385	1.001224
520.628560	1.000851
520.991678	1.000803
521.354739	1.002015
521.717743	1.001290
522.080690	1.001057
522.443580	1.001223
522.806413	1.001011
523.169189	1.002104
523.531908	1.000913
523.894569	1.001652
524.257174	1.001068
524.619722	1.001331
524.982213	1.001499
525.344647	1.001281
525.707025	1.000460
526.069345	1.000794
526.431608	1.001456
526.793815	1.001489
527.155964	1.001897
527.518057	1.001687
527.880093	1.001211
528.242072	1.001039
528.603995	1.000855
528.965860	1.001496
529.327669	1.001644
529.689421	1.001105
530.051117	1.000919
530.412755	1.002260
530.774337	1.001194
531.135862	1.001432
531.497331	1.001323
531.858743	1.001503
532.220098	1.000117
532.581396	1.001309
532.942638	1.001744
533.303824	1.001845
533.664953	1.001192
534.026025	1.002305
534.387040	1.001366
534.747999	1.000797
535.108902	1.001307
535.469748	1.001952
535.830537	1.002055
536.191270	1.001455
536.551947	1.001271
536.912567	1.001849
537.273131	1.002169
537.633638	1.001552
537.994089	1.001730
538.354483	1.000702
538.714821	1.001149
539.075103	1.001126
539.435328	1.001442
539.795497	1.001401
540.155609	1.001288
540.515665	1.001929
540.875665	1.001565
541.235609	1.001208
541.595496	1.000674
541.955328	1.000891
542.315102	1.001683
542.674821	1.001284
543.034483	1.001910
543.394090	1.000368
543.753640	1.001845
544.113134	1.001513
544.472571	1.001632
544.831953	1.001139
545.191278	1.001816
545.550548	1.000800
545.909761	1.001099
546.268918	1.001872
546.628019	1.001903
546.987064	1.001187
547.346053	1.001106
547.704986	1.001178
548.063863	1.001138
548.422684	1.001702
548.781449	1.001306
549.140158	1.001400
549.498811	1.000741
549.857408	1.000593
550.215949	1.001082
550.574434	1.001187
550.932864	1.001490
551.291237	1.001693
551.649555	1.001773
552.007817	1.001614
552.366022	1.002532
552.724173	1.002326
553.082267	1.001300
553.440305	1.001075
553.798288	1.000273
554.156215	1.001214
554.514086	1.001812
554.871902	1.001385
555.229661	1.000740
555.587365	1.001555
555.945014	1.001947
556.302606	1.001146
556.660143	1.002289
557.017625	1.002073
557.375050	1.001273
557.732421	1.001618
558.089735	1.001091
558.446994	1.001213
558.804197	1.001598
559.161345	1.000903
559.518437	1.000585
559.875474	1.001764
560.232455	1.001522
560.589381	1.001618
560.946251	1.001053
561.303065	1.001885
561.659825	1.001057
562.016528	1.002038
562.373177	1.001668
562.729770	1.001326
563.086307	1.000937
563.442789	1.001875
563.799216	1.000576
564.155587	1.001253
564.511904	1.001878
564.868164	1.000617
565.224370	1.000755
565.580520	1.001629
565.936615	1.001875
566.292654	1.001575
566.648638	1.001799
567.004567	1.001400
567.360441	1.001446
567.716260	1.001162
568.072023	1.001327
568.427732	1.001453
568.783385	1.001470
569.138982	1.001720
569.494525	1.000799
569.850013	1.001980
570.205445	1.001959
570.560823	1.001689
570.916145	1.000890
571.271412	1.001658
571.626625	1.001250
571.981782	1.001406
572.336884	1.001684
572.691931	1.000846
573.046923	1.001028
573.401860	1.001665
573.756743	1.001177
574.111570	1.001391
574.466342	1.002713
574.821059	1.001361
575.175722	1.001442
575.530330	1.001589
575.884882	1.001332
576.239380	1.001773
576.593823	1.001637
576.948211	1.001903
577.302544	1.001328
577.656823	1.001908
578.011047	1.000472
578.365216	1.001899
578.719330	1.000933
579.073389	1.000677
579.427394	1.000927
579.781344	1.001548
580.135239	1.000822
580.489080	1.001476
580.842866	1.001365
581.196597	1.001440
581.550273	1.000362
581.903895	1.001736
582.257463	1.001220
582.610975	1.001256
582.964434	1.001651
583.317837	1.001811
583.671186	1.002216
584.024481	1.000801
584.377721	1.000923
584.730906	1.001265
585.084037	1.001605
585.437113	1.002345
585.790135	1.001632
586.143103	1.001537
586.496016	1.001228
586.848874	1.001249
587.201679	1.002238
587.554428	1.001573
587.907124	1.001325
588.259765	1.001368
588.612352	1.002032
588.964884	1.001988
589.317362	1.001717
589.669786	1.001249
590.022155	1.001210
590.374470	1.000454
590.726731	1.000634
591.078937	1.001291
591.431090	1.001740
591.783188	1.001442
592.135232	1.001264
592.487222	1.001060
592.839157	1.001412
593.191038	1.001589
593.542866	1.001622
593.894639	1.000800
594.246358	1.001778
594.598022	1.001437
594.949633	1.001723
595.301190	1.001517
595.652692	1.001026
596.004141	1.001117
596.355535	1.001310
596.706876	1.001700
597.058162	1.001547
597.409395	1.001945
597.760573	1.001730
598.111698	1.001084
598.462768	1.000650
598.813785	1.001004
599.164748	1.000762
599.515657	1.001371
599.866511	1.001511
600.217312	1.001975
600.568060	1.001762
600.918753	1.001984
601.269392	1.002297
601.619978	1.001644
601.970510	1.001248
602.320988	1.001366
602.671412	1.000692
603.021783	1.001458
603.372100	1.001614
603.722363	1.002118
604.072572	1.000908
604.422728	1.000583
604.772830	1.001191
605.122878	1.001531
605.472872	1.002381
605.822813	1.000800
606.172701	1.001236
606.522534	1.000955
606.872314	1.002435
607.222041	1.001666
607.571714	1.001679
607.921333	1.001067
608.270899	1.001029
608.620411	1.001666
608.969870	1.002269
609.319276	1.001219
609.668627	1.001972
610.017926	1.001099
610.367171	1.001010
610.716362	1.001156
611.065500	1.000956
611.414585	1.001270
611.763616	1.000061
612.112594	1.000624
612.461518	1.000424
612.810389	1.001555
613.159207	1.001372
613.507971	1.000336
613.856682	1.002687
614.205340	1.001288
614.553945	1.000891
614.902496	1.001740
615.250994	1.002433
615.599439	1.001055
615.947830	1.000986
616.296169	1.001332
616.644454	1.001579
616.992686	1.001220
617.340864	1.001478
617.688990	1.001215
618.037063	1.001931
618.385082	1.000311
618.733048	1.001168
619.080961	1.000611
619.428821	1.001511
619.776628	1.001422
620.124382	1.002552
620.472083	1.001946
620.819731	1.002584
621.167326	1.001229
621.514868	1.002251
621.862357	1.001783
622.209793	1.001931
622.557176	1.001302
622.904506	1.001856
623.251783	1.001381
623.599007	1.001811
623.946179	1.000754
624.293297	1.000963
624.640363	1.001743
624.987376	1.000064
625.334336	1.000870
625.681243	1.000896
626.028097	1.001421
626.374899	1.001580
626.721647	1.001713
627.068343	1.000906
627.414987	1.001545
627.761577	1.000947
628.108115	1.000783
628.454600	1.001157
628.801032	1.001260
629.147412	1.002076
629.493739	1.001681
629.840014	1.001113
630.186236	1.000852
630.532405	1.001190
630.878521	1.000838
631.224585	1.000824
631.570597	1.001213
631.916556	1.001563
632.262462	1.000943
632.608316	1.001052
632.954117	1.000736
633.299866	1.000972
633.645562	1.000991
633.991206	1.001209
634.336797	1.000513
634.682336	1.001651
635.027823	1.001091
635.373257	1.002042
635.718639	1.001310
636.063968	1.001131
636.409245	1.000095
636.754470	1.001357
637.099642	1.001780
637.444762	1.001343
637.789829	1.001508
638.134845	1.000960
638.479808	1.001006
638.824719	1.000861
639.169577	1.000875
639.514383	1.001777
639.859137	1.001872
640.203839	1.000858
640.548489	1.001069
640.893086	1.000806
641.237632	1.001452
641.582125	1.001070
641.926566	1.001278
642.270955	1.000766
642.615292	1.000693
642.959576	1.001078
643.303809	1.001197
643.647990	1.001211
643.992118	1.000964
644.336195	1.000526
644.680219	1.000895
645.024192	1.001505
645.368112	1.000606
645.711981	1.000044
646.055797	1.001131
646.399562	1.000691
646.743274	1.001574
647.086935	1.000410
647.430544	1.001174
647.774101	0.999714
648.117606	1.001412
648.461059	1.001662
648.804460	1.000751
649.147810	1.000822
649.491108	1.000424
649.834354	1.000928
650.177548	1.000613
650.520690	1.001119
650.863781	1.000018
651.206820	1.000841
651.549807	1.000927
651.892742	1.001208
652.235626	1.000996
652.578458	1.001402
652.921238	1.001887
653.263967	1.001622
653.606644	1.001206
653.949269	1.001207
654.291843	1.000587
654.634365	1.001502
654.976836	1.000254
655.319255	1.001626
655.661622	1.000946
656.003938	1.000502
656.346203	1.000854
656.688416	1.001806
657.030577	1.000997
657.372687	1.001453
657.714746	1.000676
658.056753	1.000477
658.398708	1.000165
658.740612	1.001550
659.082465	1.000086
659.424266	1.000596
659.766016	1.000401
660.107715	1.001603
660.449362	1.000682
660.790958	1.000281
661.132503	1.000506
661.473996	1.000004
661.815438	1.001091
662.156829	1.001005
662.498168	1.001202
662.839456	1.000085
663.180693	1.000424
663.521879	1.000564
663.863013	1.001159
664.204097	1.000820
664.545129	1.001056
664.886110	1.001100
665.227040	1.000238
665.567918	1.000754
665.908746	1.000328
666.249522	1.000250
666.590248	1.000209
666.930922	1.000030
667.271545	1.000238
667.612118	1.000486
667.952639	1.000391
668.293109	0.999821
668.633528	1.001090
668.973896	1.000610
669.314213	1.000167
669.654480	1.000861
669.994695	0.999447
670.334859	1.000230
670.674973	1.000039
671.015035	1.000021
671.355047	1.000431
671.695008	1.000089
672.034918	1.000429
672.374777	1.000513
672.714585	1.000755
673.054342	1.001024
673.394049	0.999881
673.733705	1.000034
674.073310	1.001078
674.412864	1.000189
674.752368	0.999797
675.091820	1.001256
675.431223	1.000460
675.770574	0.999986
676.109875	0.999961
676.449125	1.000008
676.788324	0.999863
677.127473	1.000772
677.466571	1.001076
677.805619	1.001221
678.144616	1.000364
678.483562	1.000811
678.822458	1.000222
679.161303	0.999678
679.500098	1.000178
679.838842	1.000799
680.177535	0.999540
680.516179	0.999420
680.854771	0.999500
681.193314	1.000078
681.531805	1.000180
681.870247	1.000346
682.208638	1.000251
682.546978	0.999170
682.885268	1.000184
683.223508	1.000563
683.561697	0.999513
683.899836	0.999881
684.237925	0.999983
684.575963	0.999795
684.913951	0.999576
685.251889	1.000308
685.589776	0.999860
685.927614	0.999259
686.265401	0.999815
686.603137	0.999208
686.940824	0.999698
687.278460	1.000345
687.616046	0.999571
687.953582	0.999567
688.291068	1.000630
688.628504	1.000006
