Dividing Wavelength (nm)	Counts (n)	Blue Motor Position (mm): 43.800000	Red Motor Position (mm): 0.000000	
326.493990	0.999875
326.888308	0.999875
327.282561	0.999875
327.676750	1.000002
328.070874	0.999674
328.464933	1.001436
328.858929	1.000736
329.252859	1.000120
329.646726	0.999854
330.040528	0.998879
330.434265	1.000438
330.827938	0.998449
331.221547	1.000077
331.615091	0.999754
332.008571	1.001542
332.401986	0.999792
332.795338	0.998836
333.188625	1.000821
333.581847	0.998470
333.975006	0.999847
334.368100	1.001405
334.761129	0.999661
335.154095	1.001828
335.546996	1.000162
335.939833	0.999919
336.332606	1.000947
336.725315	0.998930
337.117960	1.001369
337.510540	0.999639
337.903056	1.000416
338.295508	1.001699
338.687896	1.000362
339.080220	0.999493
339.472480	1.000039
339.864676	1.001468
340.256807	0.998331
340.648875	1.000585
341.040879	0.999847
341.432818	1.000437
341.824694	1.000281
342.216506	1.001337
342.608253	0.999806
342.999937	0.999876
343.391557	0.999879
343.783113	1.001205
344.174605	1.000002
344.566033	0.998911
344.957397	1.000873
345.348697	1.000550
345.739934	1.000004
346.131106	1.000430
346.522215	1.000524
346.913260	1.000244
347.304241	0.999708
347.695159	1.000437
348.086012	0.999822
348.476802	1.000531
348.867528	0.999969
349.258191	1.000602
349.648789	0.999588
350.039324	1.000112
350.429796	0.999089
350.820203	0.998390
351.210548	1.000301
351.600828	1.001106
351.991045	0.999607
352.381198	1.000196
352.771288	0.999430
353.161314	0.999729
353.551276	0.999061
353.941175	0.997985
354.331010	0.999723
354.720782	0.999290
355.110490	0.999481
355.500135	1.000975
355.889717	0.998113
356.279235	0.999000
356.668689	1.000854
357.058080	0.999856
357.447408	0.998888
357.836672	0.999638
358.225873	0.997796
358.615010	0.998892
359.004084	0.996944
359.393095	0.999682
359.782043	0.998778
360.170927	0.999339
360.559748	1.000950
360.948505	0.998871
361.337199	0.999491
361.725830	1.000027
362.114398	0.999565
362.502903	0.998270
362.891344	0.997751
363.279722	0.998208
363.668037	0.998738
364.056289	0.998813
364.444478	1.000625
364.832603	0.999617
365.220665	0.999602
365.608665	0.998124
365.996601	0.998675
366.384474	0.997398
366.772284	0.998872
367.160031	0.997701
367.547715	0.997203
367.935336	0.997245
368.322893	0.995769
368.710388	0.995228
369.097820	0.993772
369.485189	0.991968
369.872495	0.990131
370.259738	0.988247
370.646918	0.984449
371.034035	0.982976
371.421090	0.979977
371.808081	0.974823
372.195010	0.972672
372.581875	0.967142
372.968678	0.962711
373.355418	0.959587
373.742096	0.950675
374.128710	0.947212
374.515262	0.942831
374.901751	0.937405
375.288177	0.931975
375.674540	0.925456
376.060841	0.920466
376.447079	0.911606
376.833254	0.907109
377.219367	0.903745
377.605417	0.892223
377.991404	0.889942
378.377329	0.885507
378.763191	0.880795
379.148991	0.873848
379.534727	0.868758
379.920402	0.862450
380.306013	0.862432
380.691563	0.852479
381.077049	0.848593
381.462474	0.849384
381.847835	0.843250
382.233134	0.842499
382.618371	0.846389
383.003545	0.836033
383.388657	0.837892
383.773706	0.836437
384.158693	0.837343
384.543618	0.838343
384.928480	0.836337
385.313280	0.835338
385.698017	0.839033
386.082692	0.838717
386.467305	0.843062
386.851856	0.846887
387.236344	0.847983
387.620770	0.853108
388.005133	0.856002
388.389435	0.859288
388.773674	0.864471
389.157851	0.867578
389.541965	0.873728
389.926018	0.882445
390.310008	0.884429
390.693936	0.890048
391.077802	0.894046
391.461606	0.900586
391.845348	0.903777
392.229027	0.909103
392.612645	0.915339
392.996200	0.917535
393.379694	0.921628
393.763125	0.926191
394.146494	0.931963
394.529801	0.936515
394.913047	0.939933
395.296230	0.947278
395.679351	0.949432
396.062410	0.954780
396.445408	0.959244
396.828343	0.963665
397.211217	0.966202
397.594028	0.970836
397.976778	0.973435
398.359466	0.976052
398.742092	0.979178
399.124656	0.981151
399.507158	0.983160
399.889598	0.986116
400.271977	0.988175
400.654294	0.988869
401.036549	0.991318
401.418742	0.992558
401.800874	0.994177
402.182944	0.993870
402.564952	0.994357
402.946898	0.995199
403.328783	0.997170
403.710606	0.996685
404.092367	0.997652
404.474067	0.997628
404.855705	0.998816
405.237282	0.997249
405.618797	0.998945
406.000250	0.998309
406.381642	0.997953
406.762972	0.998425
407.144240	0.998648
407.525447	0.998070
407.906593	0.999199
408.287677	0.999907
408.668700	0.999390
409.049661	0.999559
409.430560	0.999028
409.811399	0.999216
410.192176	0.999471
410.572891	1.000046
410.953545	0.999412
411.334138	0.999423
411.714669	0.999435
412.095139	0.999424
412.475547	1.000097
412.855894	1.000310
413.236180	0.999922
413.616405	0.999417
413.996568	1.000189
414.376670	0.999467
414.756711	0.999258
415.136691	1.000398
415.516609	0.999170
415.896466	0.999528
416.276262	0.999483
416.655997	1.000339
417.035670	1.000309
417.415283	1.000484
417.794834	1.000401
418.174324	1.001051
418.553753	0.999179
418.933121	1.000511
419.312428	1.001549
419.691674	1.000763
420.070859	0.999937
420.449983	1.000220
420.829045	0.999676
421.208047	1.000570
421.586988	1.000217
421.965867	0.999652
422.344686	1.000286
422.723444	0.999432
423.102141	1.000130
423.480777	1.000062
423.859352	1.000088
424.237866	0.999843
424.616319	1.000558
424.994712	1.000575
425.373044	1.000273
425.751314	1.000031
426.129524	1.000919
426.507673	0.999207
426.885762	0.999827
427.263789	0.999747
427.641756	0.999210
428.019662	0.999911
428.397508	1.000467
428.775292	1.000063
429.153016	1.000009
429.530679	0.999968
429.908282	1.000624
430.285824	0.999884
430.663305	0.999626
431.040726	1.000321
431.418086	1.000893
431.795385	1.000740
432.172624	1.001613
432.549802	1.000779
432.926920	1.000708
433.303977	1.000046
433.680974	1.000847
434.057910	1.000554
434.434786	0.999570
434.811601	1.000210
435.188355	1.000947
435.565050	1.000689
435.941683	1.000618
436.318257	0.998997
436.694770	1.000074
437.071222	1.000855
437.447614	1.000417
437.823946	1.000535
438.200218	1.000266
438.576429	0.999898
438.952580	0.999825
439.328670	0.999939
439.704700	0.999606
440.080670	1.000225
440.456580	1.000284
440.832429	1.000341
441.208218	1.000018
441.583947	1.000512
441.959616	0.999466
442.335224	1.000692
442.710773	1.000882
443.086261	1.000524
443.461689	1.000001
443.837057	0.999486
444.212365	1.001085
444.587612	1.000465
444.962800	0.999977
445.337927	1.000647
445.712995	1.000440
446.088002	1.000039
446.462949	1.000210
446.837837	1.001616
447.212664	1.000240
447.587431	1.000858
447.962139	1.000377
448.336786	0.999554
448.711374	1.000255
449.085901	1.000354
449.460369	1.000676
449.834776	1.000494
450.209124	0.999831
450.583412	1.000318
450.957640	1.000268
451.331808	1.000726
451.705917	1.000507
452.079965	1.000689
452.453954	1.000366
452.827883	1.000159
453.201752	1.000068
453.575562	1.000232
453.949311	1.000853
454.323001	1.000200
454.696632	1.000786
455.070202	1.000358
455.443713	1.000157
455.817164	0.999800
456.190556	1.000010
456.563888	1.000843
456.937160	1.001041
457.310373	1.000610
457.683526	0.999836
458.056619	1.000838
458.429653	0.999966
458.802628	1.000159
459.175542	1.000638
459.548398	1.000757
459.921194	1.001414
460.293930	1.000386
460.666607	1.000217
461.039224	1.001179
461.411782	1.000561
461.784280	1.000253
462.156719	1.001453
462.529099	1.000479
462.901419	1.000994
463.273680	1.000192
463.645882	0.999654
464.018024	1.000741
464.390106	1.000833
464.762130	1.000172
465.134094	1.000424
465.505999	1.000544
465.877845	1.000275
466.249631	1.000090
466.621358	0.999813
466.993026	1.000547
467.364634	1.000880
467.736184	1.000403
468.107674	1.000339
468.479105	1.000273
468.850477	1.000794
469.221790	1.000645
469.593043	1.000165
469.964238	0.999676
470.335373	1.000345
470.706449	1.000711
471.077467	1.000513
471.448425	1.000187
471.819324	1.000187
472.190164	1.000769
472.560945	1.000155
472.931667	1.000529
473.302330	1.000600
473.672934	1.000906
474.043479	1.000352
474.413965	1.000456
474.784393	1.000793
475.154761	1.000152
475.525070	1.000468
475.895321	1.000996
476.265513	1.001224
476.635645	1.001168
477.005719	1.000787
477.375734	0.999877
477.745691	1.000279
478.115588	1.000439
478.485427	1.000105
478.855207	1.000913
479.224928	1.000267
479.594591	1.000334
479.964194	1.000158
480.333739	1.000465
480.703226	1.000290
481.072653	1.000401
481.442022	1.000450
481.811333	1.000431
482.180584	0.999834
482.549777	0.999908
482.918912	1.000610
483.287988	1.001093
483.657005	1.000320
484.025964	1.000728
484.394864	1.000717
484.763706	0.999994
485.132489	1.000697
485.501213	1.000261
485.869879	1.000778
486.238487	0.999596
486.607036	1.000949
486.975527	1.000324
487.343959	1.000274
487.712333	1.000158
488.080648	1.000423
488.448905	1.001258
488.817104	1.000508
489.185244	1.000392
489.553326	1.000350
489.921350	1.000502
490.289315	1.000773
490.657222	0.999905
491.025070	1.000605
491.392861	1.000132
491.760593	1.000136
492.128267	0.999684
492.495883	0.999935
492.863440	1.000750
493.230939	1.000535
493.598380	1.000644
493.965763	1.000039
494.333088	0.999843
494.700354	0.999454
495.067563	0.999824
495.434713	1.000806
495.801805	1.000227
496.168839	1.000753
496.535815	1.000475
496.902733	1.000626
497.269593	1.000264
497.636395	0.999843
498.003139	0.999992
498.369825	1.001061
498.736453	1.000096
499.103023	1.000278
499.469535	1.000028
499.835989	1.000633
500.202385	1.000197
500.568723	1.000028
500.935003	1.000494
501.301226	1.000338
501.667390	1.000110
502.033497	1.000629
502.399546	1.000357
502.765537	1.000153
503.131470	0.999853
503.497345	1.000532
503.863163	1.000784
504.228923	1.000067
504.594625	1.000503
504.960269	1.000321
505.325856	1.001015
505.691385	1.000686
506.056856	1.000587
506.422270	1.000983
506.787625	1.000243
507.152924	1.000807
507.518164	1.000380
507.883347	1.000392
508.248472	1.000499
508.613540	1.000398
508.978550	1.000452
509.343503	1.000026
509.708398	1.001113
510.073236	1.001063
510.438016	0.999881
510.802738	0.999880
511.167403	1.000269
511.532010	1.000916
511.896561	1.000789
512.261053	1.000871
512.625488	1.000292
512.989866	1.000341
513.354186	0.999523
513.718449	1.000692
514.082655	0.999641
514.446803	1.000303
514.810894	1.000416
515.174927	1.000705
515.538904	1.000718
515.902822	1.000476
516.266684	1.000439
516.630488	1.000507
516.994235	1.000608
517.357925	1.000761
517.721558	1.000364
518.085133	1.000267
518.448651	1.000675
518.812112	1.000455
519.175516	1.000378
519.538863	1.000223
519.902152	1.000862
520.265385	1.000253
520.628560	1.000237
520.991678	1.000452
521.354739	1.000603
521.717743	0.999736
522.080690	0.999936
522.443580	1.000656
522.806413	0.999999
523.169189	1.000375
523.531908	1.000299
523.894569	1.000233
524.257174	1.000261
524.619722	1.000444
524.982213	1.000632
525.344647	1.000475
525.707025	0.999474
526.069345	0.999845
526.431608	1.000948
526.793815	1.000952
527.155964	1.000970
527.518057	1.000312
527.880093	1.000709
528.242072	1.001003
528.603995	1.000043
528.965860	1.000624
529.327669	1.000728
529.689421	1.000064
530.051117	1.000357
530.412755	1.000467
530.774337	0.999966
531.135862	1.000908
531.497331	1.000065
531.858743	1.000952
532.220098	0.999682
532.581396	1.000720
532.942638	1.000731
533.303824	1.001130
533.664953	1.000239
534.026025	1.001102
534.387040	1.000074
534.747999	1.000417
535.108902	1.000313
535.469748	1.000798
535.830537	1.000969
536.191270	1.000202
536.551947	1.000282
536.912567	1.000803
537.273131	1.000948
537.633638	0.999976
537.994089	1.000655
538.354483	1.000622
538.714821	1.000711
539.075103	1.000583
539.435328	1.000325
539.795497	1.000708
540.155609	1.000926
540.515665	1.000857
540.875665	1.000007
541.235609	1.000867
541.595496	1.000456
541.955328	1.000491
542.315102	1.000894
542.674821	1.001052
543.034483	1.000434
543.394090	1.000165
543.753640	1.000619
544.113134	1.000166
544.472571	1.001416
544.831953	1.000682
545.191278	1.001111
545.550548	0.999807
545.909761	1.000236
546.268918	1.001131
546.628019	1.001153
546.987064	1.000177
547.346053	0.999976
547.704986	1.000582
548.063863	1.000172
548.422684	1.000497
548.781449	1.000370
549.140158	1.000873
549.498811	1.000337
549.857408	1.000249
550.215949	0.999896
550.574434	1.000113
550.932864	1.001410
551.291237	1.000270
551.649555	1.001024
552.007817	1.000919
552.366022	1.000955
552.724173	1.000605
553.082267	1.000347
553.440305	1.000323
553.798288	0.999565
554.156215	1.001119
554.514086	1.000356
554.871902	1.000699
555.229661	0.999525
555.587365	1.000146
555.945014	1.000457
556.302606	1.000219
556.660143	1.000875
557.017625	1.000403
557.375050	1.000090
557.732421	1.000434
558.089735	1.000407
558.446994	1.000593
558.804197	1.000695
559.161345	1.000363
559.518437	1.000579
559.875474	1.000775
560.232455	1.000447
560.589381	1.000779
560.946251	1.000313
561.303065	1.001111
561.659825	0.999994
562.016528	1.001186
562.373177	1.000690
562.729770	1.000290
563.086307	0.999912
563.442789	1.000564
563.799216	1.000233
564.155587	1.000866
564.511904	1.000738
564.868164	0.999784
565.224370	1.000149
565.580520	1.000348
565.936615	1.001175
566.292654	1.000525
566.648638	1.001110
567.004567	1.000503
567.360441	1.001740
567.716260	1.000014
568.072023	1.000382
568.427732	1.000892
568.783385	1.000515
569.138982	1.000426
569.494525	1.000776
569.850013	1.001014
570.205445	1.000801
570.560823	1.000025
570.916145	0.999865
571.271412	1.000294
571.626625	1.000552
571.981782	1.000372
572.336884	1.001117
572.691931	1.000018
573.046923	1.000909
573.401860	1.000335
573.756743	1.000685
574.111570	1.000623
574.466342	1.000974
574.821059	0.999890
575.175722	1.000880
575.530330	1.000309
575.884882	1.000731
576.239380	1.000779
576.593823	1.000631
576.948211	1.000836
577.302544	1.000053
577.656823	1.000744
578.011047	0.999803
578.365216	1.001080
578.719330	0.999899
579.073389	0.999960
579.427394	1.000256
579.781344	1.001299
580.135239	0.999855
580.489080	1.000885
580.842866	1.000034
581.196597	1.000346
581.550273	0.999761
581.903895	1.001134
582.257463	1.000124
582.610975	0.999634
582.964434	1.000724
583.317837	1.000718
583.671186	1.000504
584.024481	1.000222
584.377721	0.999838
584.730906	1.000841
585.084037	1.000640
585.437113	1.000934
585.790135	1.001058
586.143103	1.000361
586.496016	1.000149
586.848874	1.000084
587.201679	1.000583
587.554428	1.000084
587.907124	1.000741
588.259765	1.000294
588.612352	1.000778
588.964884	1.000533
589.317362	1.000760
589.669786	1.000326
590.022155	0.999455
590.374470	1.000232
590.726731	0.999930
591.078937	1.000069
591.431090	1.000468
591.783188	0.999745
592.135232	1.000978
592.487222	1.000449
592.839157	0.999647
593.191038	1.000125
593.542866	1.000561
593.894639	0.999374
594.246358	1.000220
594.598022	1.000404
594.949633	1.000218
595.301190	0.999831
595.652692	0.999657
596.004141	1.000711
596.355535	1.000387
596.706876	1.001122
597.058162	1.000234
597.409395	0.999786
597.760573	1.000015
598.111698	0.999893
598.462768	0.999773
598.813785	0.999321
599.164748	0.999856
599.515657	1.000063
599.866511	1.000067
600.217312	1.000768
600.568060	0.999424
600.918753	1.000325
601.269392	1.000058
601.619978	1.000118
601.970510	1.000577
602.320988	1.000152
602.671412	0.999817
603.021783	1.000439
603.372100	1.001415
603.722363	1.000851
604.072572	1.000751
604.422728	0.999792
604.772830	0.999868
605.122878	1.000175
605.472872	1.000271
605.822813	0.999818
606.172701	1.000036
606.522534	1.000691
606.872314	1.000538
607.222041	1.000298
607.571714	1.000508
607.921333	1.000413
608.270899	0.999973
608.620411	0.999904
608.969870	1.001094
609.319276	1.001016
609.668627	1.001830
610.017926	1.000245
610.367171	1.000447
610.716362	0.999938
611.065500	0.999601
611.414585	1.000185
611.763616	0.999841
612.112594	0.999767
612.461518	0.999396
612.810389	1.000037
613.159207	1.000230
613.507971	0.999333
613.856682	1.000911
614.205340	0.999475
614.553945	1.000469
614.902496	1.000890
615.250994	1.000306
615.599439	1.000962
615.947830	0.999762
616.296169	1.000261
616.644454	0.999794
616.992686	1.000232
617.340864	1.000573
617.688990	0.999802
618.037063	1.000290
618.385082	0.999675
618.733048	0.999567
619.080961	1.000085
619.428821	1.000533
619.776628	0.999289
620.124382	1.000775
620.472083	1.000991
620.819731	1.001113
621.167326	1.001093
621.514868	1.000442
621.862357	1.000168
622.209793	1.000541
622.557176	0.999693
622.904506	0.999250
623.251783	1.000017
623.599007	1.000365
623.946179	1.000014
624.293297	1.000503
624.640363	1.000304
624.987376	0.999713
625.334336	1.000303
625.681243	1.000111
626.028097	1.000089
626.374899	0.999859
626.721647	1.000429
627.068343	1.000307
627.414987	1.000410
627.761577	0.999548
628.108115	0.999551
628.454600	1.000073
628.801032	0.999711
629.147412	1.000490
629.493739	1.000048
629.840014	0.999775
630.186236	0.999196
630.532405	1.000788
630.878521	0.999524
631.224585	0.999873
631.570597	0.999404
631.916556	1.000072
632.262462	0.999648
632.608316	1.000579
632.954117	0.999087
633.299866	1.000002
633.645562	0.999622
633.991206	0.999988
634.336797	0.999573
634.682336	1.000399
635.027823	1.000222
635.373257	1.000178
635.718639	1.000276
636.063968	1.000120
636.409245	0.999347
636.754470	0.999919
637.099642	1.000427
637.444762	0.999817
637.789829	1.000008
638.134845	0.999723
638.479808	0.999698
638.824719	1.000621
639.169577	0.999899
639.514383	1.000135
639.859137	1.000475
640.203839	0.999407
640.548489	0.999475
640.893086	0.999117
641.237632	1.000077
641.582125	0.999767
641.926566	0.999801
642.270955	0.999838
642.615292	0.998966
642.959576	0.999925
643.303809	1.000805
643.647990	0.999180
643.992118	1.000328
644.336195	0.998836
644.680219	0.999086
645.024192	1.000190
645.368112	0.999491
645.711981	1.000091
646.055797	0.999831
646.399562	0.998953
646.743274	1.000296
647.086935	0.999561
647.430544	0.999397
647.774101	0.998689
648.117606	1.000045
648.461059	1.000521
648.804460	0.999558
649.147810	0.999617
649.491108	0.999219
649.834354	0.999633
650.177548	1.000051
650.520690	1.000698
650.863781	0.999435
651.206820	1.000394
651.549807	0.999193
651.892742	1.000280
652.235626	0.999884
652.578458	1.000778
652.921238	1.000101
653.263967	1.000140
653.606644	0.999303
653.949269	1.000103
654.291843	0.999132
654.634365	1.000252
654.976836	0.998537
655.319255	1.000327
655.661622	0.999812
656.003938	0.999890
656.346203	0.998637
656.688416	0.999760
657.030577	0.999650
657.372687	1.000225
657.714746	0.998869
658.056753	0.999017
658.398708	0.999253
658.740612	1.000789
659.082465	0.999167
659.424266	0.999866
659.766016	0.999002
660.107715	1.000004
660.449362	0.999350
660.790958	0.999031
661.132503	1.000176
661.473996	0.998857
661.815438	0.999166
662.156829	0.999624
662.498168	0.999997
662.839456	0.999111
663.180693	0.999873
663.521879	1.000167
663.863013	0.999633
664.204097	0.999221
664.545129	0.999026
664.886110	0.999570
665.227040	0.999377
665.567918	0.999727
665.908746	0.999014
666.249522	0.999466
666.590248	0.999247
666.930922	0.998877
667.271545	0.999748
667.612118	0.999971
667.952639	0.998822
668.293109	0.998754
668.633528	0.999047
668.973896	0.998774
669.314213	0.999096
669.654480	0.999051
669.994695	0.998011
670.334859	0.998738
670.674973	0.998710
671.015035	0.999325
671.355047	0.999290
671.695008	0.998914
672.034918	0.999378
672.374777	0.999748
672.714585	0.999155
673.054342	1.000235
673.394049	0.998891
673.733705	0.998496
674.073310	1.000097
674.412864	0.998696
674.752368	0.999019
675.091820	1.000244
675.431223	0.999658
675.770574	0.998871
676.109875	0.999728
676.449125	0.999258
676.788324	0.998995
677.127473	0.999375
677.466571	0.999756
677.805619	0.999407
678.144616	0.999517
678.483562	0.998555
678.822458	0.999757
679.161303	0.998800
679.500098	0.999064
679.838842	1.000325
680.177535	0.998844
680.516179	0.998008
680.854771	0.998843
681.193314	0.999215
681.531805	0.998990
681.870247	0.999735
682.208638	0.998832
682.546978	0.998106
682.885268	0.998680
683.223508	0.998487
683.561697	0.998742
683.899836	0.999237
684.237925	0.998905
684.575963	0.998625
684.913951	0.999705
685.251889	0.998755
685.589776	0.999279
685.927614	0.998232
686.265401	0.998902
686.603137	0.998728
686.940824	0.999033
687.278460	0.999512
687.616046	0.997825
687.953582	0.998586
688.291068	0.999516
688.628504	0.998165
