Dividing Wavelength (nm)	Counts (n)	Blue Motor Position (mm): 49.500000	Red Motor Position (mm): 0.000000	
326.493990	0.999711
326.888308	0.999711
327.282561	0.999711
327.676750	1.000601
328.070874	1.001497
328.464933	0.999986
328.858929	1.002014
329.252859	0.999738
329.646726	0.999570
330.040528	1.000068
330.434265	0.999301
330.827938	0.999786
331.221547	0.999986
331.615091	1.000683
332.008571	1.001279
332.401986	0.998959
332.795338	0.999409
333.188625	0.999711
333.581847	0.999213
333.975006	0.999970
334.368100	1.000306
334.761129	0.998847
335.154095	1.000050
335.546996	1.000026
335.939833	0.999498
336.332606	1.000988
336.725315	0.999973
337.117960	1.000775
337.510540	1.000111
337.903056	1.000187
338.295508	1.000867
338.687896	1.001104
339.080220	1.000306
339.472480	1.000241
339.864676	1.000487
340.256807	0.997955
340.648875	1.000071
341.040879	0.999818
341.432818	1.001162
341.824694	0.999014
342.216506	1.000672
342.608253	0.999869
342.999937	0.999707
343.391557	0.999397
343.783113	1.000775
344.174605	1.000783
344.566033	0.999432
344.957397	1.000940
345.348697	1.000129
345.739934	1.000351
346.131106	0.998917
346.522215	0.999440
346.913260	0.999787
347.304241	0.999173
347.695159	1.000423
348.086012	0.999949
348.476802	0.999410
348.867528	0.998521
349.258191	1.000905
349.648789	1.000783
350.039324	1.000046
350.429796	0.998957
350.820203	0.998440
351.210548	1.000618
351.600828	1.000169
351.991045	0.999465
352.381198	1.000608
352.771288	1.000207
353.161314	0.999377
353.551276	0.999663
353.941175	0.998934
354.331010	1.000455
354.720782	1.000440
355.110490	0.999936
355.500135	1.000402
355.889717	0.999029
356.279235	0.999351
356.668689	1.000696
357.058080	0.999259
357.447408	0.998872
357.836672	0.999699
358.225873	1.000176
358.615010	0.999068
359.004084	1.000847
359.393095	1.000208
359.782043	1.000506
360.170927	1.000180
360.559748	1.000029
360.948505	0.998992
361.337199	0.999679
361.725830	1.000064
362.114398	1.000073
362.502903	0.999061
362.891344	0.999338
363.279722	1.000237
363.668037	1.001339
364.056289	0.999612
364.444478	1.000447
364.832603	1.000370
365.220665	1.000436
365.608665	1.000024
365.996601	0.998832
366.384474	0.998890
366.772284	1.000002
367.160031	0.999602
367.547715	1.000088
367.935336	0.998653
368.322893	0.998881
368.710388	0.998610
369.097820	0.999159
369.485189	0.998326
369.872495	0.997812
370.259738	0.997363
370.646918	0.998634
371.034035	0.997817
371.421090	0.997078
371.808081	0.995428
372.195010	0.996371
372.581875	0.996352
372.968678	0.995516
373.355418	0.996855
373.742096	0.994916
374.128710	0.995903
374.515262	0.996945
374.901751	0.996340
375.288177	0.993666
375.674540	0.996566
376.060841	0.994988
376.447079	0.994971
376.833254	0.994496
377.219367	0.996191
377.605417	0.995832
377.991404	0.996999
378.377329	0.996871
378.763191	0.995822
379.148991	0.997290
379.534727	0.997396
379.920402	0.995942
380.306013	0.996582
380.691563	0.997088
381.077049	0.996610
381.462474	0.997354
381.847835	0.996763
382.233134	0.997365
382.618371	0.999112
383.003545	0.997879
383.388657	0.998698
383.773706	0.998994
384.158693	0.998331
384.543618	0.999699
384.928480	0.998732
385.313280	0.999073
385.698017	0.999209
386.082692	0.999222
386.467305	1.000324
386.851856	1.000333
387.236344	0.999018
387.620770	1.000591
388.005133	1.000063
388.389435	0.999807
388.773674	0.999462
389.157851	1.000363
389.541965	1.000437
389.926018	0.999776
390.310008	1.000943
390.693936	1.000783
391.077802	1.000984
391.461606	0.999411
391.845348	1.000667
392.229027	0.999604
392.612645	0.999857
392.996200	1.001191
393.379694	1.000039
393.763125	1.001380
394.146494	1.000054
394.529801	1.001359
394.913047	0.999333
395.296230	1.000204
395.679351	0.999824
396.062410	0.999943
396.445408	1.000727
396.828343	0.999814
397.211217	1.000345
397.594028	0.999461
397.976778	1.000131
398.359466	1.000057
398.742092	1.001148
399.124656	0.999414
399.507158	0.999171
399.889598	0.999775
400.271977	1.000532
400.654294	0.999650
401.036549	1.001100
401.418742	1.000386
401.800874	1.000372
402.182944	0.999846
402.564952	0.999778
402.946898	0.999972
403.328783	1.000446
403.710606	0.999960
404.092367	1.000764
404.474067	1.001953
404.855705	1.000426
405.237282	0.999934
405.618797	1.000067
406.000250	1.000127
406.381642	0.999770
406.762972	1.001310
407.144240	1.000336
407.525447	0.999417
407.906593	0.998783
408.287677	1.000722
408.668700	1.001615
409.049661	1.000486
409.430560	0.999805
409.811399	1.000063
410.192176	1.000600
410.572891	1.001314
410.953545	0.999773
411.334138	1.000595
411.714669	1.000504
412.095139	1.000076
412.475547	1.000706
412.855894	1.001545
413.236180	0.999908
413.616405	0.999699
413.996568	1.000027
414.376670	1.000004
414.756711	1.000926
415.136691	1.000501
415.516609	0.999294
415.896466	1.000884
416.276262	0.999759
416.655997	1.000762
417.035670	1.000631
417.415283	1.000868
417.794834	0.999970
418.174324	1.001474
418.553753	0.999691
418.933121	1.000316
419.312428	1.001433
419.691674	1.001719
420.070859	1.001005
420.449983	1.001213
420.829045	1.000319
421.208047	1.000685
421.586988	1.000863
421.965867	0.999463
422.344686	1.000198
422.723444	1.001085
423.102141	1.000935
423.480777	0.999968
423.859352	1.000308
424.237866	1.000651
424.616319	1.000919
424.994712	1.000667
425.373044	1.000802
425.751314	1.000914
426.129524	1.001020
426.507673	1.000072
426.885762	1.001083
427.263789	1.001119
427.641756	1.000403
428.019662	1.000875
428.397508	1.000665
428.775292	1.000589
429.153016	1.000049
429.530679	1.000267
429.908282	1.000418
430.285824	1.000783
430.663305	1.000233
431.040726	1.000330
431.418086	1.000320
431.795385	1.001231
432.172624	1.001448
432.549802	1.000973
432.926920	1.000800
433.303977	0.999958
433.680974	1.001314
434.057910	1.000614
434.434786	1.000428
434.811601	1.000558
435.188355	1.001355
435.565050	1.001093
435.941683	0.999859
436.318257	0.998803
436.694770	1.000493
437.071222	1.000688
437.447614	1.000867
437.823946	1.000771
438.200218	1.000802
438.576429	1.000188
438.952580	1.000432
439.328670	0.999983
439.704700	0.999843
440.080670	1.000537
440.456580	1.000864
440.832429	1.000975
441.208218	1.000563
441.583947	1.000692
441.959616	0.999902
442.335224	1.001169
442.710773	1.001206
443.086261	1.000645
443.461689	1.000552
443.837057	1.000478
444.212365	1.001223
444.587612	1.001222
444.962800	1.000521
445.337927	1.000951
445.712995	0.999962
446.088002	1.000805
446.462949	1.000079
446.837837	1.001754
447.212664	1.000839
447.587431	1.000677
447.962139	1.001060
448.336786	1.000427
448.711374	1.000817
449.085901	1.001047
449.460369	1.000709
449.834776	1.000325
450.209124	1.000151
450.583412	1.001540
450.957640	0.999811
451.331808	1.001427
451.705917	1.000315
452.079965	1.000532
452.453954	1.001029
452.827883	1.001087
453.201752	1.000292
453.575562	1.000416
453.949311	1.000896
454.323001	1.000779
454.696632	1.001359
455.070202	1.000920
455.443713	1.001125
455.817164	1.000488
456.190556	1.001073
456.563888	1.000770
456.937160	1.001033
457.310373	1.000348
457.683526	1.000730
458.056619	1.000860
458.429653	1.000849
458.802628	1.001025
459.175542	1.000928
459.548398	1.001024
459.921194	1.000948
460.293930	1.002027
460.666607	1.001223
461.039224	1.000758
461.411782	1.000733
461.784280	1.000946
462.156719	1.001649
462.529099	1.000708
462.901419	1.000754
463.273680	1.000489
463.645882	1.000747
464.018024	1.001692
464.390106	1.000740
464.762130	1.001314
465.134094	1.001476
465.505999	1.001526
465.877845	1.000963
466.249631	1.001538
466.621358	1.000371
466.993026	1.001220
467.364634	1.000911
467.736184	1.000914
468.107674	1.001112
468.479105	1.001005
468.850477	1.000663
469.221790	1.000433
469.593043	1.000541
469.964238	1.000668
470.335373	1.001012
470.706449	1.001301
471.077467	1.000729
471.448425	1.001112
471.819324	1.000750
472.190164	1.001070
472.560945	1.000887
472.931667	1.000651
473.302330	1.001106
473.672934	1.001115
474.043479	1.000925
474.413965	1.000999
474.784393	1.000026
475.154761	1.000468
475.525070	1.000917
475.895321	1.001204
476.265513	1.001653
476.635645	1.000998
477.005719	1.001074
477.375734	1.000811
477.745691	1.001172
478.115588	1.001192
478.485427	1.001653
478.855207	1.001482
479.224928	1.001275
479.594591	1.001429
479.964194	1.000838
480.333739	1.001231
480.703226	1.000729
481.072653	1.000513
481.442022	1.001484
481.811333	1.000702
482.180584	1.001194
482.549777	1.001733
482.918912	1.000916
483.287988	1.000752
483.657005	1.001034
484.025964	1.000908
484.394864	1.001401
484.763706	1.000821
485.132489	1.001247
485.501213	1.000788
485.869879	1.001105
486.238487	1.000212
486.607036	1.001476
486.975527	1.001021
487.343959	1.000603
487.712333	1.001292
488.080648	1.000933
488.448905	1.001528
488.817104	1.001119
489.185244	1.001236
489.553326	1.001309
489.921350	1.001380
490.289315	1.001033
490.657222	1.000808
491.025070	1.000993
491.392861	1.001330
491.760593	1.001034
492.128267	1.001308
492.495883	1.000279
492.863440	1.000981
493.230939	1.000820
493.598380	1.001870
493.965763	1.000357
494.333088	1.000135
494.700354	1.000967
495.067563	1.000786
495.434713	1.001603
495.801805	1.000691
496.168839	1.000373
496.535815	1.001194
496.902733	1.001129
497.269593	1.000885
497.636395	1.000639
498.003139	1.000421
498.369825	1.001608
498.736453	1.001013
499.103023	1.000919
499.469535	1.000959
499.835989	1.001062
500.202385	1.000677
500.568723	1.001400
500.935003	1.001213
501.301226	1.001477
501.667390	1.000434
502.033497	1.001151
502.399546	1.000802
502.765537	1.001212
503.131470	1.001077
503.497345	1.000994
503.863163	1.000744
504.228923	1.000703
504.594625	1.000563
504.960269	1.000797
505.325856	1.000907
505.691385	1.001312
506.056856	1.001078
506.422270	1.001289
506.787625	1.000688
507.152924	1.001756
507.518164	1.000638
507.883347	1.000870
508.248472	1.000993
508.613540	1.001061
508.978550	1.000373
509.343503	1.000667
509.708398	1.001987
510.073236	1.000792
510.438016	1.000177
510.802738	1.000778
511.167403	1.000658
511.532010	1.001131
511.896561	1.001600
512.261053	1.000432
512.625488	1.000556
512.989866	1.000676
513.354186	1.000911
513.718449	1.000875
514.082655	1.000615
514.446803	1.000263
514.810894	1.001008
515.174927	1.001156
515.538904	1.000810
515.902822	1.000830
516.266684	1.000832
516.630488	1.001133
516.994235	1.001250
517.357925	1.001542
517.721558	1.001152
518.085133	1.000282
518.448651	1.000997
518.812112	1.001837
519.175516	1.000745
519.538863	1.000549
519.902152	1.001122
520.265385	1.000705
520.628560	1.000807
520.991678	1.001030
521.354739	1.001305
521.717743	1.001004
522.080690	1.000327
522.443580	1.001126
522.806413	1.000219
523.169189	1.001446
523.531908	1.000919
523.894569	1.001165
524.257174	1.001129
524.619722	1.001274
524.982213	1.000502
525.344647	1.001194
525.707025	1.000270
526.069345	1.000043
526.431608	1.001061
526.793815	1.001483
527.155964	1.001080
527.518057	1.001528
527.880093	1.000683
528.242072	1.000895
528.603995	1.000565
528.965860	1.001091
529.327669	1.001505
529.689421	1.000811
530.051117	1.001178
530.412755	1.001286
530.774337	1.000342
531.135862	1.001474
531.497331	1.000669
531.858743	1.001245
532.220098	1.000380
532.581396	1.001181
532.942638	1.001556
533.303824	1.000956
533.664953	1.000445
534.026025	1.001651
534.387040	1.000703
534.747999	1.000669
535.108902	1.000815
535.469748	1.001077
535.830537	1.001133
536.191270	1.001149
536.551947	1.001565
536.912567	1.000815
537.273131	1.001641
537.633638	1.001191
537.994089	1.001424
538.354483	1.001213
538.714821	1.000855
539.075103	1.000894
539.435328	1.001194
539.795497	1.001548
540.155609	1.001496
540.515665	1.000886
540.875665	1.000779
541.235609	1.001120
541.595496	1.000757
541.955328	1.001205
542.315102	1.000778
542.674821	1.000704
543.034483	1.001293
543.394090	0.999913
543.753640	1.001523
544.113134	1.000713
544.472571	1.001262
544.831953	1.001776
545.191278	1.001269
545.550548	1.000734
545.909761	1.000638
546.268918	1.001675
546.628019	1.001593
546.987064	1.000666
547.346053	1.000588
547.704986	1.000714
548.063863	1.000617
548.422684	1.001150
548.781449	1.001077
549.140158	1.000409
549.498811	1.000739
549.857408	1.000557
550.215949	1.000519
550.574434	1.001296
550.932864	1.001335
551.291237	1.000859
551.649555	1.001363
552.007817	1.001026
552.366022	1.001335
552.724173	1.001214
553.082267	1.000956
553.440305	1.000765
553.798288	1.000712
554.156215	1.001089
554.514086	1.001474
554.871902	1.000930
555.229661	0.999886
555.587365	1.001453
555.945014	1.001592
556.302606	1.000606
556.660143	1.001067
557.017625	1.001017
557.375050	1.000990
557.732421	1.000691
558.089735	0.999983
558.446994	1.000617
558.804197	1.001163
559.161345	1.000123
559.518437	1.000532
559.875474	1.001011
560.232455	1.000780
560.589381	1.001477
560.946251	1.000807
561.303065	1.001122
561.659825	1.000515
562.016528	1.001062
562.373177	1.000960
562.729770	1.000675
563.086307	0.999979
563.442789	1.001612
563.799216	1.000675
564.155587	1.001511
564.511904	1.001316
564.868164	1.000653
565.224370	1.001159
565.580520	1.000509
565.936615	1.000474
566.292654	1.000636
566.648638	1.001731
567.004567	1.001166
567.360441	1.001366
567.716260	1.000684
568.072023	1.001141
568.427732	1.001333
568.783385	1.001636
569.138982	1.000821
569.494525	1.000683
569.850013	1.000716
570.205445	1.000648
570.560823	1.001438
570.916145	1.000275
571.271412	1.000608
571.626625	1.000435
571.981782	1.001115
572.336884	1.001696
572.691931	1.000997
573.046923	1.001382
573.401860	1.000413
573.756743	1.001022
574.111570	1.000720
574.466342	1.001833
574.821059	1.001288
575.175722	1.001300
575.530330	1.000791
575.884882	1.000907
576.239380	1.001290
576.593823	1.000452
576.948211	1.000738
577.302544	1.001146
577.656823	1.001041
578.011047	1.000387
578.365216	1.001869
578.719330	1.001559
579.073389	1.000488
579.427394	1.001267
579.781344	1.001709
580.135239	1.000390
580.489080	1.001394
580.842866	1.001446
581.196597	1.001286
581.550273	1.000580
581.903895	1.000997
582.257463	1.000364
582.610975	1.000922
582.964434	1.001057
583.317837	1.000968
583.671186	1.001252
584.024481	1.000306
584.377721	1.000339
584.730906	1.001414
585.084037	1.001261
585.437113	1.001194
585.790135	1.001283
586.143103	1.000803
586.496016	1.000186
586.848874	1.000987
587.201679	1.000057
587.554428	1.000443
587.907124	1.001324
588.259765	1.001119
588.612352	1.001446
588.964884	1.001253
589.317362	1.000509
589.669786	1.000622
590.022155	1.000547
590.374470	1.000910
590.726731	1.000465
591.078937	1.002011
591.431090	1.001130
591.783188	1.000460
592.135232	1.001917
592.487222	1.000936
592.839157	1.000783
593.191038	1.000317
593.542866	1.001531
593.894639	1.000421
594.246358	1.001347
594.598022	1.001145
594.949633	1.000975
595.301190	1.001585
595.652692	1.000538
596.004141	1.000679
596.355535	1.000527
596.706876	1.001080
597.058162	1.000845
597.409395	1.001102
597.760573	1.001190
598.111698	1.000693
598.462768	1.000121
598.813785	1.000002
599.164748	1.001148
599.515657	1.000970
599.866511	1.001359
600.217312	1.001040
600.568060	1.000389
600.918753	1.001374
601.269392	1.001950
601.619978	1.001614
601.970510	1.000437
602.320988	1.000720
602.671412	1.000434
603.021783	1.001143
603.372100	1.001223
603.722363	1.000757
604.072572	1.001103
604.422728	1.000618
604.772830	1.000467
605.122878	1.000610
605.472872	1.001266
605.822813	1.000229
606.172701	1.001305
606.522534	1.001164
606.872314	1.001747
607.222041	1.000889
607.571714	1.000742
607.921333	1.001291
608.270899	1.000205
608.620411	1.001387
608.969870	1.001635
609.319276	1.001370
609.668627	1.001607
610.017926	1.000652
610.367171	1.000938
610.716362	1.000526
611.065500	1.000610
611.414585	1.001206
611.763616	1.000171
612.112594	1.000366
612.461518	1.000415
612.810389	1.000954
613.159207	1.000853
613.507971	1.000494
613.856682	1.001608
614.205340	0.999722
614.553945	1.000338
614.902496	1.000397
615.250994	1.000995
615.599439	1.000961
615.947830	1.000146
616.296169	1.001330
616.644454	1.000707
616.992686	1.000393
617.340864	1.001649
617.688990	1.000635
618.037063	1.001795
618.385082	1.001259
618.733048	1.000693
619.080961	1.000657
619.428821	1.001338
619.776628	1.000730
620.124382	1.001667
620.472083	1.000913
620.819731	1.001416
621.167326	1.001527
621.514868	1.001524
621.862357	1.000474
622.209793	1.000863
622.557176	1.000520
622.904506	1.000272
623.251783	1.000245
623.599007	1.001180
623.946179	1.000163
624.293297	1.001122
624.640363	1.000525
624.987376	1.000155
625.334336	1.000996
625.681243	1.001080
626.028097	1.000321
626.374899	1.000081
626.721647	1.000676
627.068343	1.000233
627.414987	1.000675
627.761577	1.000176
628.108115	1.000002
628.454600	1.001169
628.801032	1.001672
629.147412	1.000645
629.493739	1.000506
629.840014	1.000768
630.186236	1.000739
630.532405	1.000346
630.878521	1.000427
631.224585	1.000540
631.570597	1.000367
631.916556	1.000441
632.262462	0.999244
632.608316	1.001162
632.954117	1.000503
633.299866	1.000839
633.645562	1.000969
633.991206	1.001007
634.336797	1.000467
634.682336	1.001585
635.027823	1.000575
635.373257	1.001223
635.718639	1.001451
636.063968	1.001294
636.409245	1.000788
636.754470	1.000284
637.099642	1.000780
637.444762	1.000944
637.789829	1.000245
638.134845	1.000257
638.479808	1.000557
638.824719	1.000759
639.169577	1.000669
639.514383	1.001292
639.859137	1.000058
640.203839	1.000529
640.548489	0.999613
640.893086	1.000240
641.237632	1.000429
641.582125	1.000559
641.926566	1.001446
642.270955	1.001069
642.615292	0.999582
642.959576	1.000327
643.303809	1.001473
643.647990	1.001110
643.992118	1.001451
644.336195	1.000441
644.680219	1.000544
645.024192	1.000149
645.368112	1.000349
645.711981	1.000215
646.055797	1.000922
646.399562	1.000194
646.743274	1.000722
647.086935	0.999747
647.430544	1.000272
647.774101	1.000184
648.117606	1.001723
648.461059	1.000801
648.804460	1.001181
649.147810	0.999510
649.491108	1.000443
649.834354	1.000235
650.177548	1.000444
650.520690	1.000355
650.863781	1.000579
651.206820	1.001487
651.549807	1.000381
651.892742	1.001168
652.235626	1.000263
652.578458	1.000437
652.921238	1.000140
653.263967	1.001342
653.606644	0.999959
653.949269	1.001698
654.291843	0.999886
654.634365	1.001410
654.976836	1.000649
655.319255	1.001246
655.661622	1.001523
656.003938	1.000488
656.346203	0.999926
656.688416	1.000539
657.030577	1.000221
657.372687	1.000235
657.714746	1.000753
658.056753	1.000974
658.398708	1.000279
658.740612	1.001460
659.082465	0.999575
659.424266	1.000400
659.766016	1.000368
660.107715	1.001093
660.449362	1.000448
660.790958	1.000311
661.132503	1.001119
661.473996	1.000280
661.815438	1.001447
662.156829	1.000699
662.498168	1.001732
662.839456	1.000238
663.180693	1.000498
663.521879	0.999830
663.863013	1.001156
664.204097	0.999705
664.545129	0.999645
664.886110	1.000599
665.227040	1.000436
665.567918	0.999534
665.908746	0.999666
666.249522	1.000320
666.590248	1.000073
666.930922	0.999501
667.271545	1.000439
667.612118	1.000676
667.952639	1.000211
668.293109	0.999648
668.633528	0.999980
668.973896	0.999896
669.314213	0.999799
669.654480	1.000254
669.994695	0.999900
670.334859	1.000299
670.674973	1.000372
671.015035	1.000383
671.355047	0.999891
671.695008	0.999424
672.034918	0.999636
672.374777	1.000331
672.714585	1.000027
673.054342	1.000561
673.394049	0.999631
673.733705	0.999389
674.073310	1.000362
674.412864	1.000510
674.752368	0.999888
675.091820	1.001294
675.431223	1.001114
675.770574	0.999805
676.109875	1.000376
676.449125	0.999266
676.788324	0.999925
677.127473	1.000801
677.466571	0.999876
677.805619	1.000221
678.144616	1.001146
678.483562	1.000735
678.822458	1.001131
679.161303	1.000739
679.500098	1.000841
679.838842	1.001172
680.177535	0.999671
680.516179	0.999412
680.854771	1.000492
681.193314	1.000366
681.531805	0.999871
681.870247	1.000422
682.208638	1.000677
682.546978	0.999767
682.885268	1.000201
683.223508	1.000463
683.561697	0.999907
683.899836	1.000827
684.237925	0.999816
684.575963	1.000594
684.913951	1.000053
685.251889	0.999585
685.589776	1.000026
685.927614	0.999979
686.265401	0.999872
686.603137	1.000259
686.940824	1.000216
687.278460	1.001356
687.616046	1.000159
687.953582	1.000603
688.291068	1.000790
688.628504	1.000262
