Dividing Wavelength (nm)	Counts (n)	Blue Motor Position (mm): 47.600000	Red Motor Position (mm): 0.000000	
326.493990	0.999695
326.888308	0.999695
327.282561	0.999695
327.676750	1.001229
328.070874	1.000705
328.464933	1.000808
328.858929	1.000297
329.252859	0.999377
329.646726	0.999607
330.040528	0.999956
330.434265	0.999953
330.827938	0.999509
331.221547	0.999429
331.615091	1.000124
332.008571	1.000600
332.401986	0.999376
332.795338	1.000482
333.188625	0.999860
333.581847	0.999556
333.975006	1.000547
334.368100	1.000471
334.761129	0.999831
335.154095	0.999755
335.546996	1.000353
335.939833	0.998815
336.332606	1.000211
336.725315	0.999116
337.117960	1.001422
337.510540	0.999619
337.903056	0.999318
338.295508	1.001470
338.687896	1.000722
339.080220	0.999671
339.472480	0.998522
339.864676	1.000939
340.256807	0.998698
340.648875	1.001065
341.040879	0.999512
341.432818	1.000302
341.824694	1.000483
342.216506	1.001465
342.608253	1.000086
342.999937	0.999362
343.391557	0.999872
343.783113	1.001893
344.174605	1.000736
344.566033	0.998557
344.957397	1.000924
345.348697	1.000563
345.739934	1.000997
346.131106	1.000828
346.522215	0.999512
346.913260	1.000032
347.304241	0.999943
347.695159	1.000219
348.086012	0.999482
348.476802	1.000006
348.867528	1.000088
349.258191	1.000362
349.648789	0.999761
350.039324	1.000032
350.429796	0.999333
350.820203	0.998587
351.210548	1.000777
351.600828	0.999722
351.991045	0.998773
352.381198	1.000697
352.771288	1.000001
353.161314	1.000100
353.551276	0.998764
353.941175	0.997877
354.331010	1.000264
354.720782	1.000689
355.110490	0.999444
355.500135	1.000599
355.889717	0.998874
356.279235	1.000522
356.668689	1.000042
357.058080	0.999338
357.447408	0.998256
357.836672	0.999540
358.225873	1.000299
358.615010	0.999883
359.004084	0.997954
359.393095	1.000292
359.782043	0.999033
360.170927	0.999685
360.559748	0.999602
360.948505	0.999604
361.337199	1.000061
361.725830	1.000589
362.114398	1.000124
362.502903	0.998771
362.891344	0.998873
363.279722	1.000011
363.668037	0.998915
364.056289	0.999351
364.444478	1.000824
364.832603	0.999806
365.220665	1.001199
365.608665	0.998748
365.996601	0.999757
366.384474	0.997869
366.772284	0.999554
367.160031	0.998445
367.547715	1.000073
367.935336	0.996930
368.322893	0.997284
368.710388	0.995277
369.097820	0.993343
369.485189	0.992196
369.872495	0.991422
370.259738	0.990782
370.646918	0.988068
371.034035	0.986680
371.421090	0.985077
371.808081	0.980859
372.195010	0.980956
372.581875	0.977073
372.968678	0.977061
373.355418	0.975277
373.742096	0.971142
374.128710	0.970842
374.515262	0.969933
374.901751	0.968304
375.288177	0.967226
375.674540	0.966174
376.060841	0.965096
376.447079	0.963966
376.833254	0.963385
377.219367	0.964109
377.605417	0.959940
377.991404	0.962228
378.377329	0.961770
378.763191	0.962319
379.148991	0.962008
379.534727	0.961537
379.920402	0.961821
380.306013	0.963956
380.691563	0.963805
381.077049	0.964781
381.462474	0.965815
381.847835	0.966339
382.233134	0.967477
382.618371	0.970248
383.003545	0.970594
383.388657	0.972442
383.773706	0.973941
384.158693	0.976176
384.543618	0.978771
384.928480	0.978506
385.313280	0.980847
385.698017	0.982713
386.082692	0.983207
386.467305	0.983648
386.851856	0.987215
387.236344	0.986912
387.620770	0.990885
388.005133	0.991156
388.389435	0.990964
388.773674	0.993023
389.157851	0.992841
389.541965	0.995225
389.926018	0.995669
390.310008	0.995819
390.693936	0.997380
391.077802	0.997711
391.461606	0.997618
391.845348	0.997805
392.229027	0.997059
392.612645	0.998707
392.996200	0.999130
393.379694	0.998226
393.763125	0.999276
394.146494	0.999216
394.529801	0.999418
394.913047	0.999299
395.296230	0.999662
395.679351	0.999104
396.062410	0.999638
396.445408	1.000036
396.828343	1.000074
397.211217	1.000383
397.594028	0.998830
397.976778	1.000251
398.359466	1.000152
398.742092	1.000988
399.124656	0.999894
399.507158	0.999065
399.889598	1.000749
400.271977	1.000324
400.654294	1.000579
401.036549	1.001122
401.418742	1.000157
401.800874	0.999509
402.182944	0.999763
402.564952	0.999949
402.946898	1.000091
403.328783	1.001015
403.710606	0.999803
404.092367	0.999617
404.474067	1.001062
404.855705	1.000474
405.237282	0.999517
405.618797	1.000712
406.000250	0.999841
406.381642	0.999197
406.762972	1.000632
407.144240	1.000623
407.525447	0.998960
407.906593	0.999721
408.287677	1.000396
408.668700	1.000286
409.049661	0.999995
409.430560	0.999167
409.811399	0.999624
410.192176	0.999408
410.572891	1.000404
410.953545	1.000035
411.334138	1.000469
411.714669	0.999925
412.095139	0.999990
412.475547	1.000411
412.855894	1.000541
413.236180	0.999315
413.616405	0.999999
413.996568	1.000641
414.376670	0.999837
414.756711	0.999410
415.136691	1.000698
415.516609	0.998859
415.896466	1.000493
416.276262	0.999806
416.655997	1.001096
417.035670	1.000414
417.415283	1.000631
417.794834	1.000811
418.174324	1.001416
418.553753	1.000526
418.933121	1.000868
419.312428	1.000831
419.691674	1.001437
420.070859	1.000945
420.449983	1.000410
420.829045	0.999762
421.208047	1.000814
421.586988	0.999631
421.965867	0.999114
422.344686	1.000363
422.723444	1.000051
423.102141	1.000495
423.480777	0.999964
423.859352	0.999909
424.237866	1.000554
424.616319	1.000833
424.994712	1.001007
425.373044	1.000631
425.751314	1.000217
426.129524	1.000760
426.507673	1.000019
426.885762	1.000343
427.263789	1.000286
427.641756	1.000287
428.019662	0.999871
428.397508	1.000342
428.775292	0.999998
429.153016	1.000063
429.530679	1.000040
429.908282	1.001145
430.285824	1.000236
430.663305	1.000530
431.040726	1.000688
431.418086	1.000498
431.795385	1.000921
432.172624	1.000840
432.549802	1.000747
432.926920	1.000360
433.303977	1.000634
433.680974	1.001501
434.057910	1.000687
434.434786	1.000068
434.811601	1.001342
435.188355	1.001549
435.565050	1.000735
435.941683	1.000588
436.318257	0.999420
436.694770	1.000793
437.071222	1.001193
437.447614	1.000426
437.823946	1.001126
438.200218	0.999976
438.576429	0.999454
438.952580	1.000034
439.328670	1.000171
439.704700	1.000211
440.080670	0.999779
440.456580	1.000382
440.832429	1.000560
441.208218	1.000845
441.583947	0.999298
441.959616	0.999383
442.335224	1.001291
442.710773	1.000710
443.086261	1.000418
443.461689	1.000461
443.837057	1.000295
444.212365	1.001066
444.587612	1.001228
444.962800	1.000415
445.337927	1.001343
445.712995	1.001020
446.088002	0.999998
446.462949	1.000011
446.837837	1.001393
447.212664	1.000081
447.587431	1.001149
447.962139	1.000339
448.336786	0.999767
448.711374	0.999932
449.085901	1.000640
449.460369	1.001373
449.834776	1.000029
450.209124	1.001116
450.583412	1.000468
450.957640	1.000560
451.331808	1.000566
451.705917	1.001515
452.079965	1.000496
452.453954	1.000786
452.827883	1.000421
453.201752	1.001522
453.575562	0.999708
453.949311	1.001216
454.323001	0.999931
454.696632	1.000744
455.070202	1.000186
455.443713	1.000224
455.817164	1.000345
456.190556	1.000634
456.563888	1.000781
456.937160	1.001072
457.310373	1.000183
457.683526	1.000894
458.056619	1.000692
458.429653	1.000349
458.802628	1.000567
459.175542	1.001211
459.548398	1.000819
459.921194	1.001283
460.293930	1.001567
460.666607	1.001467
461.039224	1.000477
461.411782	1.000286
461.784280	1.000122
462.156719	1.000669
462.529099	1.001224
462.901419	1.000961
463.273680	1.000141
463.645882	1.000697
464.018024	1.000849
464.390106	0.999666
464.762130	1.000816
465.134094	1.000721
465.505999	1.000578
465.877845	1.000418
466.249631	1.000310
466.621358	0.999243
466.993026	1.000774
467.364634	1.000631
467.736184	1.000912
468.107674	1.001121
468.479105	1.000187
468.850477	1.001217
469.221790	1.001207
469.593043	1.000916
469.964238	1.000537
470.335373	1.000325
470.706449	1.000844
471.077467	1.000817
471.448425	1.000613
471.819324	1.000895
472.190164	1.000650
472.560945	1.000589
472.931667	1.001246
473.302330	1.000667
473.672934	1.001231
474.043479	1.000422
474.413965	1.000874
474.784393	1.001329
475.154761	1.000671
475.525070	1.000694
475.895321	1.000925
476.265513	1.001621
476.635645	1.001302
477.005719	1.000997
477.375734	1.001383
477.745691	1.000501
478.115588	1.000643
478.485427	1.000600
478.855207	1.000646
479.224928	1.000590
479.594591	1.000553
479.964194	1.000059
480.333739	1.001152
480.703226	0.999517
481.072653	1.000329
481.442022	1.001247
481.811333	1.000584
482.180584	1.000291
482.549777	1.000492
482.918912	1.000856
483.287988	1.000754
483.657005	1.000597
484.025964	1.000593
484.394864	1.000160
484.763706	1.000636
485.132489	1.001434
485.501213	1.000611
485.869879	1.001261
486.238487	0.999655
486.607036	1.001595
486.975527	1.000975
487.343959	1.000536
487.712333	1.000669
488.080648	1.000603
488.448905	1.000720
488.817104	1.000331
489.185244	1.000600
489.553326	1.000266
489.921350	1.000642
490.289315	1.000739
490.657222	0.999559
491.025070	1.000978
491.392861	1.000972
491.760593	1.000298
492.128267	1.000792
492.495883	0.999992
492.863440	1.000542
493.230939	1.000408
493.598380	1.001438
493.965763	1.000519
494.333088	1.000161
494.700354	0.999897
495.067563	1.000498
495.434713	1.000399
495.801805	1.000579
496.168839	1.000927
496.535815	1.000807
496.902733	1.000566
497.269593	0.999812
497.636395	0.999868
498.003139	1.000401
498.369825	1.000327
498.736453	1.000044
499.103023	1.000832
499.469535	1.000635
499.835989	1.000761
500.202385	1.000783
500.568723	1.000357
500.935003	1.000417
501.301226	1.001127
501.667390	0.999931
502.033497	1.000504
502.399546	1.000653
502.765537	1.000692
503.131470	1.000538
503.497345	1.000693
503.863163	1.000741
504.228923	0.999695
504.594625	1.000168
504.960269	1.000487
505.325856	1.001206
505.691385	1.000266
506.056856	1.000412
506.422270	1.000690
506.787625	1.000595
507.152924	1.000980
507.518164	1.000538
507.883347	1.000497
508.248472	1.000777
508.613540	1.000135
508.978550	1.000526
509.343503	1.001008
509.708398	1.000805
510.073236	1.000555
510.438016	1.000135
510.802738	0.999704
511.167403	1.000096
511.532010	1.001181
511.896561	1.000791
512.261053	1.000694
512.625488	1.000859
512.989866	1.000593
513.354186	1.000175
513.718449	1.000847
514.082655	1.000365
514.446803	1.000558
514.810894	1.000777
515.174927	1.000697
515.538904	1.001299
515.902822	1.000888
516.266684	1.000392
516.630488	1.000724
516.994235	1.000975
517.357925	1.000607
517.721558	1.000711
518.085133	1.000456
518.448651	1.000676
518.812112	1.000580
519.175516	1.000649
519.538863	1.000052
519.902152	1.001096
520.265385	1.000809
520.628560	0.999997
520.991678	1.000236
521.354739	1.000637
521.717743	1.000391
522.080690	1.000042
522.443580	1.000597
522.806413	1.000402
523.169189	1.000578
523.531908	1.000544
523.894569	1.000505
524.257174	1.000371
524.619722	1.000300
524.982213	1.000180
525.344647	1.000719
525.707025	1.000150
526.069345	0.999673
526.431608	1.000608
526.793815	1.001272
527.155964	1.000983
527.518057	1.001244
527.880093	0.999959
528.242072	1.000216
528.603995	1.000191
528.965860	1.000664
529.327669	1.001281
529.689421	1.000355
530.051117	1.000250
530.412755	1.000872
530.774337	1.000479
531.135862	1.000845
531.497331	1.000805
531.858743	1.001308
532.220098	1.000199
532.581396	1.000702
532.942638	1.000947
533.303824	1.001162
533.664953	1.000538
534.026025	1.000973
534.387040	1.000691
534.747999	1.000172
535.108902	1.000379
535.469748	1.000830
535.830537	1.000370
536.191270	1.000763
536.551947	1.000179
536.912567	1.000867
537.273131	1.000971
537.633638	1.000350
537.994089	1.001526
538.354483	1.000933
538.714821	1.000609
539.075103	1.000961
539.435328	1.001382
539.795497	1.000762
540.155609	1.000785
540.515665	1.001651
540.875665	1.000114
541.235609	1.000676
541.595496	1.000028
541.955328	1.000581
542.315102	1.000907
542.674821	1.001347
543.034483	1.000820
543.394090	0.999907
543.753640	1.001165
544.113134	1.000549
544.472571	1.001276
544.831953	1.000744
545.191278	1.000892
545.550548	1.000203
545.909761	0.999812
546.268918	1.001348
546.628019	1.000643
546.987064	1.000625
547.346053	1.000308
547.704986	1.000204
548.063863	1.000225
548.422684	1.001042
548.781449	1.000933
549.140158	1.000871
549.498811	1.000506
549.857408	1.000422
550.215949	1.000124
550.574434	1.000400
550.932864	1.001043
551.291237	1.000466
551.649555	1.001032
552.007817	1.000670
552.366022	1.001313
552.724173	1.000948
553.082267	1.000955
553.440305	1.000599
553.798288	1.000023
554.156215	1.000967
554.514086	1.000819
554.871902	1.000328
555.229661	1.000185
555.587365	1.000543
555.945014	1.000907
556.302606	1.000178
556.660143	1.001081
557.017625	1.000578
557.375050	1.000785
557.732421	1.000612
558.089735	0.999827
558.446994	1.000314
558.804197	1.000493
559.161345	1.000413
559.518437	1.000819
559.875474	1.000975
560.232455	1.000860
560.589381	1.000949
560.946251	1.000389
561.303065	1.000526
561.659825	1.000448
562.016528	1.000885
562.373177	1.001141
562.729770	1.000459
563.086307	0.999843
563.442789	1.000816
563.799216	0.999780
564.155587	1.000712
564.511904	1.000703
564.868164	0.999698
565.224370	1.000872
565.580520	1.001009
565.936615	1.000974
566.292654	1.000729
566.648638	1.000368
567.004567	1.000417
567.360441	1.001270
567.716260	1.000625
568.072023	1.000268
568.427732	1.000696
568.783385	1.000901
569.138982	1.000639
569.494525	1.000845
569.850013	1.000854
570.205445	1.000817
570.560823	1.000056
570.916145	1.000505
571.271412	1.000642
571.626625	1.000680
571.981782	1.001021
572.336884	1.000903
572.691931	1.000777
573.046923	1.001196
573.401860	1.000418
573.756743	1.001002
574.111570	1.000430
574.466342	1.001971
574.821059	1.001055
575.175722	1.001231
575.530330	1.000311
575.884882	1.000799
576.239380	1.000509
576.593823	1.000542
576.948211	1.001042
577.302544	1.001057
577.656823	1.001029
578.011047	1.000005
578.365216	1.002172
578.719330	1.000627
579.073389	0.999687
579.427394	1.000029
579.781344	1.001490
580.135239	0.999853
580.489080	1.001329
580.842866	1.000972
581.196597	1.000371
581.550273	1.000333
581.903895	1.001371
582.257463	1.000635
582.610975	1.000741
582.964434	1.000777
583.317837	1.000712
583.671186	1.001419
584.024481	1.000243
584.377721	1.000577
584.730906	1.000509
585.084037	1.001660
585.437113	1.001346
585.790135	1.000386
586.143103	1.000638
586.496016	1.000725
586.848874	1.001087
587.201679	1.001253
587.554428	1.000184
587.907124	1.000219
588.259765	1.001010
588.612352	1.001730
588.964884	1.001317
589.317362	1.000492
589.669786	0.999910
590.022155	1.000161
590.374470	1.000194
590.726731	1.000400
591.078937	1.000786
591.431090	1.000558
591.783188	1.000661
592.135232	1.000970
592.487222	1.001007
592.839157	1.000478
593.191038	1.000870
593.542866	1.000846
593.894639	1.000432
594.246358	1.001280
594.598022	1.000737
594.949633	1.000691
595.301190	1.000549
595.652692	1.000865
596.004141	1.000660
596.355535	1.000090
596.706876	1.001231
597.058162	1.001055
597.409395	1.000941
597.760573	1.000624
598.111698	1.000858
598.462768	1.000352
598.813785	1.000619
599.164748	1.000731
599.515657	1.000596
599.866511	1.000819
600.217312	1.001366
600.568060	1.000859
600.918753	1.001010
601.269392	1.000793
601.619978	1.000981
601.970510	1.000847
602.320988	1.000247
602.671412	1.000833
603.021783	1.000784
603.372100	1.001243
603.722363	1.001076
604.072572	1.000950
604.422728	1.000980
604.772830	1.000062
605.122878	1.000817
605.472872	1.001351
605.822813	1.000157
606.172701	1.000487
606.522534	1.001411
606.872314	1.001872
607.222041	1.000277
607.571714	1.000811
607.921333	1.000518
608.270899	1.000898
608.620411	1.000963
608.969870	1.001961
609.319276	1.001280
609.668627	1.001185
610.017926	1.001084
610.367171	1.000845
610.716362	1.001294
611.065500	1.000780
611.414585	1.000519
611.763616	1.000414
612.112594	1.000715
612.461518	0.999895
612.810389	1.001177
613.159207	1.000868
613.507971	1.000264
613.856682	1.001216
614.205340	1.000099
614.553945	1.000634
614.902496	1.000892
615.250994	1.000585
615.599439	1.000801
615.947830	1.000574
616.296169	1.001115
616.644454	1.000979
616.992686	1.000685
617.340864	1.000997
617.688990	1.000774
618.037063	1.001071
618.385082	1.000169
618.733048	1.000022
619.080961	1.000033
619.428821	1.001615
619.776628	1.000439
620.124382	1.002007
620.472083	1.000948
620.819731	1.001489
621.167326	1.000938
621.514868	1.000771
621.862357	1.001622
622.209793	1.001216
622.557176	1.000626
622.904506	1.000768
623.251783	1.001069
623.599007	1.001018
623.946179	1.000228
624.293297	1.000958
624.640363	1.001055
624.987376	1.000235
625.334336	1.000221
625.681243	1.000390
626.028097	1.001118
626.374899	1.000704
626.721647	1.001818
627.068343	1.000943
627.414987	1.000650
627.761577	0.999850
628.108115	1.000475
628.454600	1.000344
628.801032	1.001384
629.147412	1.000667
629.493739	1.001182
629.840014	1.000950
630.186236	1.000485
630.532405	1.000757
630.878521	1.000436
631.224585	1.000431
631.570597	0.999515
631.916556	1.000902
632.262462	1.000447
632.608316	1.000732
632.954117	0.999878
633.299866	1.000348
633.645562	0.999885
633.991206	1.000672
634.336797	1.000642
634.682336	1.000857
635.027823	1.001045
635.373257	1.000646
635.718639	1.001366
636.063968	1.000583
636.409245	1.000178
636.754470	0.999960
637.099642	1.001270
637.444762	1.001693
637.789829	1.000592
638.134845	1.000207
638.479808	1.000578
638.824719	1.000639
639.169577	1.001609
639.514383	1.000499
639.859137	1.000945
640.203839	1.000576
640.548489	1.000329
640.893086	1.000129
641.237632	1.000991
641.582125	1.000496
641.926566	1.001190
642.270955	1.000639
642.615292	1.001202
642.959576	1.000999
643.303809	1.001269
643.647990	1.000749
643.992118	1.000548
644.336195	0.999188
644.680219	1.000863
645.024192	1.000663
645.368112	1.000292
645.711981	1.000434
646.055797	1.000746
646.399562	0.999194
646.743274	1.000671
647.086935	1.000141
647.430544	1.000284
647.774101	1.000205
648.117606	1.000658
648.461059	1.001662
648.804460	1.000661
649.147810	1.000783
649.491108	1.000345
649.834354	1.001008
650.177548	1.000475
650.520690	1.000208
650.863781	0.999527
651.206820	1.000117
651.549807	1.000278
651.892742	1.001337
652.235626	1.000145
652.578458	0.999915
652.921238	1.001921
653.263967	1.000543
653.606644	1.000430
653.949269	1.001087
654.291843	1.000351
654.634365	1.001527
654.976836	0.999966
655.319255	1.001208
655.661622	1.000083
656.003938	1.000445
656.346203	1.000276
656.688416	1.001229
657.030577	1.000208
657.372687	1.000528
657.714746	1.000431
658.056753	1.000107
658.398708	1.000507
658.740612	1.001461
659.082465	0.999883
659.424266	1.000602
659.766016	0.999400
660.107715	1.001189
660.449362	1.000208
660.790958	1.000565
661.132503	1.001379
661.473996	1.000242
661.815438	1.000960
662.156829	1.000663
662.498168	1.000993
662.839456	0.999803
663.180693	1.000939
663.521879	1.000135
663.863013	1.000957
664.204097	1.000430
664.545129	0.999718
664.886110	1.000673
665.227040	1.000112
665.567918	1.000533
665.908746	0.999443
666.249522	0.999829
666.590248	0.999709
666.930922	0.999600
667.271545	1.000231
667.612118	1.000206
667.952639	1.000602
668.293109	1.000382
668.633528	0.999932
668.973896	0.999932
669.314213	1.000709
669.654480	1.000211
669.994695	1.000098
670.334859	1.000219
670.674973	1.000009
671.015035	1.000289
671.355047	1.000045
671.695008	0.999960
672.034918	1.000154
672.374777	1.000470
672.714585	0.999937
673.054342	1.000528
673.394049	1.000621
673.733705	1.000407
674.073310	1.000723
674.412864	1.000496
674.752368	1.000338
675.091820	1.000720
675.431223	1.001307
675.770574	0.999060
676.109875	0.999717
676.449125	0.999426
676.788324	0.999493
677.127473	1.000470
677.466571	1.000499
677.805619	1.000226
678.144616	1.000238
678.483562	1.000255
678.822458	1.000353
679.161303	0.999082
679.500098	1.000000
679.838842	0.999494
680.177535	0.999981
680.516179	0.999653
680.854771	1.000284
681.193314	0.999157
681.531805	0.999776
681.870247	0.999518
682.208638	1.000039
682.546978	0.999291
682.885268	0.999854
683.223508	0.998897
683.561697	0.999480
683.899836	0.999858
684.237925	0.999563
684.575963	1.000399
684.913951	0.999485
685.251889	0.999427
685.589776	0.999848
685.927614	1.000073
686.265401	1.000052
686.603137	0.999612
686.940824	0.999191
687.278460	1.000666
687.616046	0.999837
687.953582	0.999342
688.291068	1.000007
688.628504	0.999879
