Dividing Wavelength (nm)	Counts (n)	Blue Motor Position (mm): 47.300000	Red Motor Position (mm): 0.000000	
326.493990	0.999283
326.888308	0.999283
327.282561	0.999283
327.676750	1.001812
328.070874	1.001533
328.464933	1.000778
328.858929	1.000389
329.252859	1.000282
329.646726	1.000184
330.040528	1.000016
330.434265	1.001273
330.827938	1.000335
331.221547	1.000617
331.615091	1.001270
332.008571	1.001102
332.401986	0.999373
332.795338	0.998609
333.188625	1.000737
333.581847	0.999637
333.975006	0.999589
334.368100	1.000005
334.761129	1.000419
335.154095	1.000371
335.546996	1.000895
335.939833	1.000512
336.332606	1.000433
336.725315	0.999440
337.117960	1.000797
337.510540	1.000457
337.903056	1.000115
338.295508	1.001198
338.687896	1.001138
339.080220	0.999996
339.472480	0.999769
339.864676	1.000896
340.256807	0.999219
340.648875	0.999991
341.040879	0.999152
341.432818	1.001132
341.824694	0.999204
342.216506	1.000269
342.608253	1.000499
342.999937	0.999426
343.391557	1.001033
343.783113	1.001568
344.174605	1.000639
344.566033	0.999394
344.957397	0.999863
345.348697	1.000347
345.739934	1.000823
346.131106	1.001009
346.522215	0.999802
346.913260	0.999868
347.304241	0.999005
347.695159	1.000511
348.086012	0.999988
348.476802	0.998725
348.867528	0.999066
349.258191	1.000291
349.648789	0.999853
350.039324	0.999578
350.429796	1.000694
350.820203	0.998933
351.210548	0.999702
351.600828	0.999690
351.991045	1.000874
352.381198	0.999223
352.771288	0.999654
353.161314	1.001650
353.551276	1.000552
353.941175	0.998876
354.331010	1.001243
354.720782	1.001259
355.110490	1.000098
355.500135	1.000191
355.889717	0.999071
356.279235	1.000840
356.668689	1.001293
357.058080	0.999603
357.447408	1.000265
357.836672	1.000132
358.225873	0.999793
358.615010	0.999815
359.004084	0.999721
359.393095	1.001199
359.782043	0.999188
360.170927	1.001421
360.559748	0.999786
360.948505	0.998898
361.337199	0.999443
361.725830	1.001006
362.114398	0.999616
362.502903	0.998294
362.891344	0.999440
363.279722	1.000137
363.668037	0.999941
364.056289	0.999966
364.444478	1.000583
364.832603	0.999550
365.220665	0.999957
365.608665	0.999158
365.996601	0.998909
366.384474	0.997868
366.772284	0.999438
367.160031	0.998176
367.547715	0.998895
367.935336	0.997881
368.322893	0.996778
368.710388	0.996173
369.097820	0.994103
369.485189	0.992898
369.872495	0.990709
370.259738	0.990109
370.646918	0.987791
371.034035	0.984641
371.421090	0.983844
371.808081	0.980147
372.195010	0.978723
372.581875	0.976170
372.968678	0.974001
373.355418	0.973006
373.742096	0.967950
374.128710	0.967874
374.515262	0.966015
374.901751	0.963383
375.288177	0.964059
375.674540	0.960988
376.060841	0.959827
376.447079	0.957887
376.833254	0.957804
377.219367	0.958129
377.605417	0.954389
377.991404	0.956057
378.377329	0.956236
378.763191	0.955018
379.148991	0.955489
379.534727	0.954711
379.920402	0.954422
380.306013	0.955957
380.691563	0.955705
381.077049	0.956235
381.462474	0.957904
381.847835	0.958167
382.233134	0.959861
382.618371	0.964218
383.003545	0.962241
383.388657	0.965462
383.773706	0.966953
384.158693	0.969022
384.543618	0.972945
384.928480	0.973438
385.313280	0.975877
385.698017	0.976740
386.082692	0.978006
386.467305	0.979629
386.851856	0.982766
387.236344	0.982967
387.620770	0.985376
388.005133	0.987130
388.389435	0.988362
388.773674	0.989900
389.157851	0.990070
389.541965	0.992871
389.926018	0.993460
390.310008	0.994117
390.693936	0.996193
391.077802	0.996861
391.461606	0.995664
391.845348	0.996645
392.229027	0.997828
392.612645	0.998832
392.996200	0.998887
393.379694	0.998428
393.763125	0.999661
394.146494	0.998647
394.529801	1.000241
394.913047	0.998062
395.296230	1.000093
395.679351	0.999290
396.062410	0.999876
396.445408	0.999723
396.828343	1.000926
397.211217	0.999965
397.594028	0.999038
397.976778	1.001240
398.359466	1.000316
398.742092	1.001077
399.124656	0.999846
399.507158	0.999121
399.889598	1.001880
400.271977	1.000879
400.654294	0.999990
401.036549	1.001433
401.418742	1.000863
401.800874	1.000966
402.182944	1.000066
402.564952	1.000432
402.946898	1.001273
403.328783	1.002104
403.710606	0.999917
404.092367	1.000418
404.474067	1.001113
404.855705	1.001049
405.237282	1.000424
405.618797	1.001210
406.000250	1.000310
406.381642	0.999871
406.762972	1.001006
407.144240	1.000717
407.525447	0.999016
407.906593	1.000606
408.287677	1.000831
408.668700	1.000849
409.049661	1.000887
409.430560	1.000907
409.811399	1.000417
410.192176	1.001044
410.572891	1.000977
410.953545	1.000407
411.334138	1.001611
411.714669	1.000984
412.095139	1.000893
412.475547	1.001094
412.855894	1.000738
413.236180	1.000785
413.616405	1.000702
413.996568	1.000718
414.376670	0.999695
414.756711	1.000652
415.136691	1.000711
415.516609	0.999876
415.896466	1.001082
416.276262	0.999783
416.655997	1.001282
417.035670	1.000791
417.415283	1.000448
417.794834	1.000530
418.174324	1.001019
418.553753	1.001232
418.933121	1.000951
419.312428	1.000798
419.691674	1.001771
420.070859	1.000767
420.449983	1.000936
420.829045	1.000717
421.208047	1.001052
421.586988	1.000610
421.965867	0.999915
422.344686	1.001060
422.723444	1.000492
423.102141	1.000279
423.480777	1.000297
423.859352	1.000718
424.237866	1.000889
424.616319	1.001353
424.994712	1.000833
425.373044	1.001477
425.751314	1.001068
426.129524	1.001806
426.507673	1.000062
426.885762	1.001205
427.263789	1.000461
427.641756	1.000743
428.019662	1.000811
428.397508	1.001046
428.775292	1.001427
429.153016	0.999918
429.530679	1.001142
429.908282	1.001178
430.285824	1.000900
430.663305	1.001014
431.040726	1.001835
431.418086	1.000376
431.795385	1.001261
432.172624	1.000915
432.549802	1.000497
432.926920	1.001143
433.303977	1.000386
433.680974	1.002129
434.057910	1.001097
434.434786	0.999523
434.811601	1.000805
435.188355	1.001388
435.565050	1.001533
435.941683	1.000504
436.318257	1.000709
436.694770	1.000728
437.071222	1.001827
437.447614	1.001049
437.823946	1.001177
438.200218	1.000995
438.576429	1.001216
438.952580	1.001916
439.328670	0.999904
439.704700	1.000628
440.080670	1.001710
440.456580	1.001593
440.832429	1.000738
441.208218	1.000970
441.583947	1.001263
441.959616	0.999957
442.335224	1.001816
442.710773	1.001305
443.086261	1.001544
443.461689	1.001656
443.837057	1.002133
444.212365	1.001115
444.587612	1.002161
444.962800	1.001192
445.337927	1.001670
445.712995	1.000983
446.088002	1.001078
446.462949	1.000838
446.837837	1.001914
447.212664	1.000947
447.587431	1.001261
447.962139	1.001620
448.336786	1.000970
448.711374	1.000078
449.085901	1.001601
449.460369	1.001851
449.834776	1.000736
450.209124	1.000823
450.583412	1.001411
450.957640	1.001088
451.331808	1.001577
451.705917	1.000718
452.079965	1.001252
452.453954	1.001776
452.827883	1.001508
453.201752	1.001005
453.575562	1.000789
453.949311	1.001795
454.323001	1.001632
454.696632	1.000976
455.070202	1.001356
455.443713	1.000896
455.817164	1.000965
456.190556	1.000413
456.563888	1.001259
456.937160	1.000784
457.310373	1.001068
457.683526	1.001560
458.056619	1.001772
458.429653	1.001044
458.802628	1.001490
459.175542	1.002134
459.548398	1.001819
459.921194	1.000913
460.293930	1.002148
460.666607	1.001329
461.039224	1.000692
461.411782	1.001707
461.784280	1.000813
462.156719	1.002141
462.529099	1.002158
462.901419	1.001423
463.273680	1.000381
463.645882	1.000968
464.018024	1.001540
464.390106	1.000992
464.762130	1.002045
465.134094	1.001177
465.505999	1.001384
465.877845	1.001175
466.249631	1.000986
466.621358	1.001473
466.993026	1.001744
467.364634	1.001817
467.736184	1.001474
468.107674	1.001034
468.479105	1.001591
468.850477	1.001347
469.221790	1.001790
469.593043	1.001091
469.964238	1.001127
470.335373	1.000983
470.706449	1.001395
471.077467	1.001473
471.448425	1.001227
471.819324	1.001459
472.190164	1.001142
472.560945	1.001324
472.931667	1.000968
473.302330	1.001933
473.672934	1.001739
474.043479	1.001507
474.413965	1.001452
474.784393	1.001028
475.154761	1.001407
475.525070	1.001341
475.895321	1.001942
476.265513	1.001598
476.635645	1.001789
477.005719	1.001497
477.375734	1.001453
477.745691	1.000945
478.115588	1.001429
478.485427	1.001581
478.855207	1.001356
479.224928	1.001608
479.594591	1.001152
479.964194	1.000922
480.333739	1.001798
480.703226	1.001376
481.072653	1.001206
481.442022	1.001550
481.811333	1.000781
482.180584	1.001611
482.549777	1.001305
482.918912	1.001427
483.287988	1.001389
483.657005	1.001370
484.025964	1.000979
484.394864	1.001523
484.763706	1.000990
485.132489	1.001428
485.501213	1.001540
485.869879	1.001170
486.238487	1.000677
486.607036	1.001881
486.975527	1.001214
487.343959	1.001068
487.712333	1.001523
488.080648	1.001541
488.448905	1.001246
488.817104	1.001271
489.185244	1.001198
489.553326	1.001389
489.921350	1.001490
490.289315	1.001239
490.657222	1.000397
491.025070	1.001166
491.392861	1.001705
491.760593	1.001220
492.128267	1.000606
492.495883	1.000722
492.863440	1.001129
493.230939	1.001981
493.598380	1.001960
493.965763	1.000928
494.333088	1.000534
494.700354	1.000892
495.067563	1.000864
495.434713	1.002101
495.801805	1.001287
496.168839	1.001300
496.535815	1.000908
496.902733	1.001003
497.269593	1.000604
497.636395	1.001053
498.003139	1.000767
498.369825	1.001595
498.736453	1.001570
499.103023	1.001659
499.469535	1.001202
499.835989	1.001414
500.202385	1.000773
500.568723	1.001392
500.935003	1.000903
501.301226	1.001573
501.667390	1.001039
502.033497	1.001242
502.399546	1.001194
502.765537	1.001247
503.131470	1.000937
503.497345	1.001846
503.863163	1.001241
504.228923	1.001151
504.594625	1.001001
504.960269	1.001089
505.325856	1.002067
505.691385	1.001434
506.056856	1.001979
506.422270	1.001239
506.787625	1.001101
507.152924	1.001681
507.518164	1.000920
507.883347	1.000662
508.248472	1.001297
508.613540	1.000681
508.978550	1.001375
509.343503	1.001009
509.708398	1.001913
510.073236	1.001649
510.438016	1.001157
510.802738	1.001281
511.167403	1.000398
511.532010	1.001283
511.896561	1.001255
512.261053	1.001221
512.625488	1.001389
512.989866	1.001613
513.354186	1.001208
513.718449	1.001256
514.082655	1.001233
514.446803	1.001101
514.810894	1.001649
515.174927	1.001424
515.538904	1.001943
515.902822	1.000984
516.266684	1.001124
516.630488	1.001015
516.994235	1.001383
517.357925	1.002009
517.721558	1.001603
518.085133	1.000452
518.448651	1.000958
518.812112	1.001608
519.175516	1.001068
519.538863	1.000890
519.902152	1.001386
520.265385	1.001543
520.628560	1.001245
520.991678	1.001200
521.354739	1.001846
521.717743	1.001470
522.080690	1.000891
522.443580	1.000940
522.806413	1.001058
523.169189	1.001684
523.531908	1.000620
523.894569	1.001323
524.257174	1.001244
524.619722	1.001121
524.982213	1.001468
525.344647	1.000875
525.707025	1.001192
526.069345	1.000795
526.431608	1.000906
526.793815	1.001635
527.155964	1.001665
527.518057	1.001525
527.880093	1.001324
528.242072	1.001288
528.603995	1.000816
528.965860	1.001824
529.327669	1.001036
529.689421	1.000774
530.051117	1.001552
530.412755	1.001480
530.774337	1.000853
531.135862	1.001949
531.497331	1.001585
531.858743	1.001786
532.220098	1.000559
532.581396	1.001224
532.942638	1.001567
533.303824	1.002284
533.664953	1.001095
534.026025	1.001833
534.387040	1.001825
534.747999	1.001345
535.108902	1.001150
535.469748	1.001928
535.830537	1.001865
536.191270	1.002122
536.551947	1.001075
536.912567	1.001371
537.273131	1.001281
537.633638	1.001665
537.994089	1.001985
538.354483	1.001650
538.714821	1.001222
539.075103	1.000991
539.435328	1.002068
539.795497	1.001172
540.155609	1.000605
540.515665	1.001759
540.875665	1.000841
541.235609	1.001566
541.595496	1.000919
541.955328	1.001052
542.315102	1.001543
542.674821	1.001695
543.034483	1.001426
543.394090	1.000656
543.753640	1.001591
544.113134	1.001375
544.472571	1.001822
544.831953	1.001155
545.191278	1.001355
545.550548	1.000969
545.909761	1.001517
546.268918	1.002182
546.628019	1.002456
546.987064	1.001230
547.346053	1.001675
547.704986	1.000988
548.063863	1.000870
548.422684	1.001499
548.781449	1.001654
549.140158	1.001519
549.498811	1.000711
549.857408	1.000463
550.215949	1.001037
550.574434	1.001093
550.932864	1.001799
551.291237	1.000917
551.649555	1.002592
552.007817	1.001266
552.366022	1.001678
552.724173	1.001514
553.082267	1.000942
553.440305	1.001156
553.798288	1.001005
554.156215	1.001213
554.514086	1.001553
554.871902	1.001318
555.229661	1.001183
555.587365	1.001246
555.945014	1.001704
556.302606	1.001123
556.660143	1.001815
557.017625	1.001745
557.375050	1.000538
557.732421	1.001680
558.089735	1.000675
558.446994	1.001108
558.804197	1.001927
559.161345	1.001112
559.518437	1.001523
559.875474	1.001517
560.232455	1.000666
560.589381	1.001683
560.946251	1.001081
561.303065	1.000642
561.659825	1.000612
562.016528	1.001730
562.373177	1.001732
562.729770	1.001301
563.086307	1.000762
563.442789	1.000446
563.799216	1.000726
564.155587	1.000990
564.511904	1.001272
564.868164	1.000561
565.224370	1.000939
565.580520	1.001614
565.936615	1.001713
566.292654	1.001094
566.648638	1.001450
567.004567	1.001380
567.360441	1.001613
567.716260	1.000821
568.072023	1.000450
568.427732	1.001144
568.783385	1.001477
569.138982	1.001410
569.494525	1.000959
569.850013	1.001945
570.205445	1.001440
570.560823	1.000686
570.916145	1.001453
571.271412	1.001115
571.626625	1.001348
571.981782	1.000863
572.336884	1.001840
572.691931	1.001724
573.046923	1.002109
573.401860	1.000801
573.756743	1.001442
574.111570	1.000934
574.466342	1.001727
574.821059	1.001038
575.175722	1.001292
575.530330	1.001743
575.884882	1.001122
576.239380	1.001562
576.593823	1.001329
576.948211	1.001578
577.302544	1.001036
577.656823	1.000911
578.011047	1.001130
578.365216	1.002142
578.719330	1.000966
579.073389	1.000574
579.427394	1.001159
579.781344	1.001670
580.135239	1.000737
580.489080	1.001062
580.842866	1.001340
581.196597	1.001078
581.550273	1.000471
581.903895	1.001262
582.257463	1.001023
582.610975	1.000771
582.964434	1.001206
583.317837	1.001779
583.671186	1.001304
584.024481	1.001156
584.377721	1.000869
584.730906	1.001741
585.084037	1.002193
585.437113	1.001680
585.790135	1.000695
586.143103	1.001643
586.496016	1.000906
586.848874	1.001389
587.201679	1.001705
587.554428	1.000613
587.907124	1.001596
588.259765	1.001018
588.612352	1.001890
588.964884	1.001355
589.317362	1.000878
589.669786	1.000904
590.022155	1.000722
590.374470	1.000962
590.726731	1.000902
591.078937	1.001496
591.431090	1.001207
591.783188	1.000900
592.135232	1.002030
592.487222	1.001313
592.839157	1.001442
593.191038	1.001156
593.542866	1.001183
593.894639	1.000117
594.246358	1.001649
594.598022	1.001259
594.949633	1.000915
595.301190	1.001097
595.652692	1.000760
596.004141	1.001447
596.355535	1.000492
596.706876	1.001623
597.058162	1.001440
597.409395	1.001238
597.760573	1.000741
598.111698	1.000386
598.462768	0.999557
598.813785	1.000696
599.164748	1.000799
599.515657	1.000021
599.866511	1.001755
600.217312	1.001569
600.568060	1.000749
600.918753	1.001194
601.269392	1.001209
601.619978	1.001011
601.970510	1.001180
602.320988	1.001466
602.671412	1.000328
603.021783	1.001342
603.372100	1.001263
603.722363	1.001630
604.072572	1.001013
604.422728	1.000716
604.772830	1.000331
605.122878	1.000756
605.472872	1.001351
605.822813	1.000124
606.172701	1.000649
606.522534	1.000956
606.872314	1.001735
607.222041	1.000106
607.571714	1.000954
607.921333	1.001232
608.270899	1.001126
608.620411	1.000864
608.969870	1.001068
609.319276	1.000846
609.668627	1.001619
610.017926	1.000792
610.367171	1.000908
610.716362	1.000290
611.065500	1.000315
611.414585	1.001709
611.763616	1.000367
612.112594	1.000916
612.461518	1.000351
612.810389	1.000905
613.159207	1.000417
613.507971	1.000075
613.856682	1.001603
614.205340	0.999704
614.553945	1.001414
614.902496	1.001010
615.250994	1.000410
615.599439	1.000819
615.947830	1.000439
616.296169	1.001381
616.644454	1.000703
616.992686	1.001324
617.340864	1.001086
617.688990	1.000292
618.037063	1.000744
618.385082	1.000853
618.733048	1.000229
619.080961	1.000489
619.428821	1.001525
619.776628	1.000197
620.124382	1.001575
620.472083	1.001878
620.819731	1.001341
621.167326	1.000562
621.514868	1.001038
621.862357	1.000300
622.209793	1.000093
622.557176	1.000349
622.904506	1.000503
623.251783	1.000876
623.599007	1.001478
623.946179	1.000364
624.293297	1.000420
624.640363	1.000595
624.987376	1.000003
625.334336	1.000655
625.681243	1.000011
626.028097	1.000921
626.374899	1.001432
626.721647	1.000991
627.068343	1.000078
627.414987	1.000628
627.761577	1.000259
628.108115	1.000610
628.454600	1.001607
628.801032	1.000762
629.147412	1.001229
629.493739	1.001748
629.840014	1.000391
630.186236	1.000346
630.532405	1.000871
630.878521	1.000572
631.224585	1.001017
631.570597	0.999657
631.916556	1.000767
632.262462	0.999638
632.608316	1.000570
632.954117	0.999827
633.299866	1.000264
633.645562	0.999205
633.991206	1.001153
634.336797	1.000954
634.682336	1.000719
635.027823	1.000991
635.373257	1.000933
635.718639	1.000594
636.063968	1.000466
636.409245	1.000451
636.754470	1.000847
637.099642	1.000858
637.444762	1.000975
637.789829	1.001232
638.134845	1.000580
638.479808	0.999554
638.824719	1.001028
639.169577	1.000194
639.514383	1.001318
639.859137	1.000564
640.203839	0.999829
640.548489	1.000092
640.893086	1.000235
641.237632	0.999977
641.582125	0.999726
641.926566	1.001196
642.270955	1.000902
642.615292	1.000265
642.959576	1.000306
643.303809	1.001000
643.647990	1.000643
643.992118	1.001309
644.336195	0.999687
644.680219	1.000613
645.024192	1.000496
645.368112	0.999692
645.711981	1.000992
646.055797	0.999992
646.399562	0.999674
646.743274	1.000895
647.086935	0.999742
647.430544	0.999792
647.774101	1.000022
648.117606	1.001035
648.461059	1.000680
648.804460	1.000153
649.147810	0.999878
649.491108	1.000332
649.834354	1.000721
650.177548	1.000147
650.520690	1.000569
650.863781	0.999652
651.206820	0.999968
651.549807	1.000309
651.892742	1.000597
652.235626	1.000847
652.578458	0.999945
652.921238	1.001147
653.263967	1.000857
653.606644	0.999122
653.949269	1.001490
654.291843	0.999737
654.634365	1.000806
654.976836	0.999364
655.319255	1.001277
655.661622	1.000128
656.003938	1.000864
656.346203	0.999358
656.688416	1.000953
657.030577	1.001394
657.372687	1.000163
657.714746	0.999881
658.056753	0.999933
658.398708	0.999191
658.740612	1.000672
659.082465	1.000461
659.424266	0.999884
659.766016	0.999803
660.107715	1.001073
660.449362	1.000051
660.790958	1.000763
661.132503	1.001281
661.473996	0.999580
661.815438	1.000788
662.156829	1.000531
662.498168	0.999903
662.839456	0.999494
663.180693	1.000553
663.521879	1.000325
663.863013	1.000455
664.204097	0.999668
664.545129	0.999458
664.886110	1.000025
665.227040	1.000229
665.567918	1.000032
665.908746	0.999404
666.249522	1.000278
666.590248	0.999770
666.930922	0.999740
667.271545	0.999992
667.612118	1.000458
667.952639	0.999545
668.293109	1.000164
668.633528	0.999813
668.973896	0.999769
669.314213	0.999445
669.654480	1.000141
669.994695	0.999309
670.334859	1.000081
670.674973	0.999481
671.015035	1.000520
671.355047	0.999967
671.695008	0.999340
672.034918	0.999589
672.374777	1.000240
672.714585	1.000105
673.054342	1.000449
673.394049	0.999164
673.733705	0.999787
674.073310	0.999846
674.412864	1.000208
674.752368	0.999372
675.091820	1.000570
675.431223	1.000108
675.770574	0.999012
676.109875	1.000384
676.449125	0.999003
676.788324	0.999953
677.127473	1.000395
677.466571	0.999615
677.805619	0.998871
678.144616	1.000598
678.483562	1.000222
678.822458	1.000493
679.161303	1.000253
679.500098	0.999719
679.838842	1.000803
680.177535	0.999541
680.516179	0.999456
680.854771	0.999499
681.193314	0.999301
681.531805	0.999588
681.870247	1.000222
682.208638	0.999950
682.546978	0.998920
682.885268	1.000050
683.223508	0.998929
683.561697	0.999696
683.899836	0.999468
684.237925	0.999124
684.575963	0.999849
684.913951	0.999995
685.251889	0.999688
685.589776	0.999245
685.927614	0.999137
686.265401	0.998537
686.603137	0.999370
686.940824	0.999354
687.278460	1.000295
687.616046	0.998877
687.953582	0.998979
688.291068	1.000040
688.628504	0.998942
