Dividing Wavelength (nm)	Counts (n)	Blue Motor Position (mm): 48.700000	Red Motor Position (mm): 0.000000	
326.493990	0.999508
326.888308	0.999508
327.282561	0.999508
327.676750	1.000800
328.070874	1.000290
328.464933	1.001928
328.858929	0.999879
329.252859	1.000410
329.646726	0.998539
330.040528	1.000051
330.434265	0.999829
330.827938	0.999283
331.221547	1.000523
331.615091	0.999394
332.008571	1.000875
332.401986	0.998970
332.795338	1.000440
333.188625	1.000530
333.581847	0.999500
333.975006	0.999645
334.368100	1.001257
334.761129	0.998524
335.154095	0.999518
335.546996	0.999836
335.939833	0.998115
336.332606	1.000559
336.725315	0.998140
337.117960	1.000934
337.510540	0.999268
337.903056	1.001068
338.295508	1.000257
338.687896	1.000994
339.080220	1.000292
339.472480	1.000058
339.864676	1.001008
340.256807	0.998998
340.648875	1.001285
341.040879	0.998684
341.432818	1.000093
341.824694	0.999074
342.216506	0.999663
342.608253	1.000087
342.999937	1.000107
343.391557	0.999251
343.783113	1.000892
344.174605	1.000702
344.566033	0.997745
344.957397	1.000961
345.348697	1.000858
345.739934	1.001119
346.131106	0.999527
346.522215	0.999635
346.913260	0.999664
347.304241	0.999657
347.695159	0.999824
348.086012	0.999425
348.476802	1.000619
348.867528	0.999202
349.258191	1.000406
349.648789	1.000466
350.039324	0.999325
350.429796	0.998831
350.820203	0.998703
351.210548	1.000617
351.600828	0.999719
351.991045	0.999244
352.381198	0.999622
352.771288	0.998636
353.161314	1.000671
353.551276	0.998683
353.941175	0.999329
354.331010	1.000404
354.720782	1.000506
355.110490	0.999690
355.500135	1.000892
355.889717	0.999253
356.279235	0.999641
356.668689	0.999730
357.058080	0.999950
357.447408	0.998744
357.836672	1.001142
358.225873	0.999878
358.615010	0.999959
359.004084	0.997553
359.393095	0.999980
359.782043	0.999189
360.170927	1.000678
360.559748	1.000204
360.948505	0.999283
361.337199	0.999326
361.725830	0.999973
362.114398	0.999943
362.502903	0.998862
362.891344	0.997725
363.279722	0.997521
363.668037	0.999446
364.056289	0.999088
364.444478	1.001423
364.832603	1.000485
365.220665	1.000195
365.608665	0.999341
365.996601	0.999972
366.384474	0.998112
366.772284	0.999153
367.160031	0.998027
367.547715	0.999991
367.935336	0.997409
368.322893	0.997758
368.710388	0.997064
369.097820	0.995960
369.485189	0.995036
369.872495	0.994539
370.259738	0.993683
370.646918	0.992159
371.034035	0.990457
371.421090	0.991347
371.808081	0.988210
372.195010	0.989095
372.581875	0.988647
372.968678	0.987366
373.355418	0.986530
373.742096	0.984514
374.128710	0.985566
374.515262	0.984520
374.901751	0.984848
375.288177	0.984307
375.674540	0.984226
376.060841	0.983849
376.447079	0.983829
376.833254	0.983286
377.219367	0.984277
377.605417	0.982884
377.991404	0.983623
378.377329	0.983953
378.763191	0.983806
379.148991	0.985068
379.534727	0.984184
379.920402	0.984904
380.306013	0.985503
380.691563	0.986041
381.077049	0.986577
381.462474	0.987927
381.847835	0.987997
382.233134	0.989622
382.618371	0.990886
383.003545	0.990518
383.388657	0.990309
383.773706	0.992179
384.158693	0.992873
384.543618	0.993972
384.928480	0.993807
385.313280	0.995170
385.698017	0.993774
386.082692	0.994772
386.467305	0.996167
386.851856	0.997392
387.236344	0.997325
387.620770	0.997838
388.005133	0.998649
388.389435	0.999133
388.773674	0.998383
389.157851	0.999229
389.541965	0.999843
389.926018	1.000060
390.310008	0.999959
390.693936	1.000818
391.077802	0.999932
391.461606	0.999226
391.845348	1.000072
392.229027	0.998909
392.612645	0.999782
392.996200	1.000389
393.379694	0.999466
393.763125	1.000216
394.146494	0.999939
394.529801	1.000267
394.913047	0.998940
395.296230	0.999475
395.679351	1.000061
396.062410	0.999960
396.445408	1.000670
396.828343	1.000776
397.211217	0.999551
397.594028	0.999435
397.976778	1.001174
398.359466	0.999858
398.742092	1.001306
399.124656	0.998506
399.507158	0.999241
399.889598	1.000625
400.271977	1.000606
400.654294	0.999616
401.036549	1.000626
401.418742	1.001387
401.800874	1.000064
402.182944	0.999146
402.564952	1.000570
402.946898	0.999888
403.328783	1.000627
403.710606	0.999555
404.092367	1.000178
404.474067	1.000937
404.855705	1.000869
405.237282	1.000591
405.618797	1.001058
406.000250	0.999871
406.381642	0.999573
406.762972	1.000718
407.144240	0.999871
407.525447	0.998334
407.906593	0.999319
408.287677	1.000228
408.668700	1.000747
409.049661	1.000914
409.430560	0.999720
409.811399	0.999805
410.192176	0.999960
410.572891	1.000201
410.953545	0.999898
411.334138	1.000260
411.714669	1.000067
412.095139	1.000315
412.475547	0.999861
412.855894	1.000234
413.236180	1.000396
413.616405	1.000425
413.996568	0.999565
414.376670	1.000176
414.756711	1.000221
415.136691	1.001279
415.516609	0.999548
415.896466	1.000506
416.276262	1.000189
416.655997	0.999911
417.035670	1.000525
417.415283	1.000453
417.794834	1.000337
418.174324	1.001130
418.553753	0.999978
418.933121	1.000145
419.312428	1.000517
419.691674	1.001022
420.070859	1.000942
420.449983	1.000477
420.829045	0.999388
421.208047	1.000696
421.586988	1.000255
421.965867	0.999753
422.344686	1.000289
422.723444	1.000063
423.102141	1.000455
423.480777	0.999257
423.859352	1.000128
424.237866	1.000196
424.616319	1.000570
424.994712	1.000546
425.373044	0.999959
425.751314	1.000355
426.129524	1.001252
426.507673	0.999371
426.885762	1.000284
427.263789	0.999605
427.641756	1.000708
428.019662	1.000860
428.397508	0.999829
428.775292	1.000034
429.153016	1.000258
429.530679	1.000489
429.908282	1.001163
430.285824	0.999772
430.663305	1.000380
431.040726	1.000994
431.418086	1.000301
431.795385	1.001023
432.172624	1.001268
432.549802	0.999607
432.926920	1.000093
433.303977	1.000711
433.680974	1.000729
434.057910	1.000321
434.434786	1.000893
434.811601	1.000610
435.188355	1.001203
435.565050	1.000610
435.941683	0.999816
436.318257	0.999556
436.694770	0.999857
437.071222	1.001033
437.447614	1.000691
437.823946	1.000244
438.200218	1.000503
438.576429	0.999640
438.952580	1.000983
439.328670	0.999109
439.704700	0.999542
440.080670	1.000473
440.456580	1.000720
440.832429	1.000413
441.208218	1.000473
441.583947	1.000787
441.959616	0.999657
442.335224	1.000532
442.710773	1.000649
443.086261	1.000962
443.461689	1.000093
443.837057	1.000337
444.212365	1.000625
444.587612	1.002005
444.962800	1.000575
445.337927	1.001146
445.712995	1.001176
446.088002	1.000156
446.462949	0.999844
446.837837	1.001356
447.212664	1.000339
447.587431	1.000768
447.962139	1.000581
448.336786	0.999725
448.711374	1.000651
449.085901	1.000328
449.460369	1.000898
449.834776	1.000441
450.209124	1.001378
450.583412	1.001257
450.957640	0.999983
451.331808	1.001172
451.705917	0.999954
452.079965	1.000403
452.453954	1.000716
452.827883	1.000925
453.201752	1.001240
453.575562	1.000263
453.949311	1.000865
454.323001	1.000106
454.696632	1.000507
455.070202	0.999695
455.443713	1.000996
455.817164	1.000437
456.190556	1.000706
456.563888	1.001650
456.937160	1.000163
457.310373	1.000096
457.683526	1.000514
458.056619	1.000869
458.429653	1.000513
458.802628	0.999779
459.175542	1.000508
459.548398	1.000272
459.921194	1.001011
460.293930	1.001347
460.666607	1.001214
461.039224	1.000766
461.411782	1.000686
461.784280	1.000371
462.156719	1.000915
462.529099	1.000797
462.901419	1.000755
463.273680	1.000383
463.645882	1.000247
464.018024	1.001283
464.390106	1.000786
464.762130	1.000579
465.134094	1.000554
465.505999	1.000920
465.877845	1.000732
466.249631	1.000748
466.621358	0.999823
466.993026	1.000479
467.364634	1.000645
467.736184	1.000080
468.107674	1.000981
468.479105	1.001028
468.850477	1.000311
469.221790	1.000500
469.593043	1.000003
469.964238	1.000170
470.335373	0.999702
470.706449	0.999971
471.077467	1.000740
471.448425	1.000188
471.819324	1.000258
472.190164	0.999969
472.560945	1.000446
472.931667	1.000370
473.302330	1.000964
473.672934	1.000832
474.043479	1.000021
474.413965	1.000455
474.784393	1.000275
475.154761	0.999671
475.525070	1.000664
475.895321	1.000748
476.265513	1.001200
476.635645	1.001502
477.005719	1.000649
477.375734	0.999891
477.745691	1.000750
478.115588	1.000329
478.485427	1.001097
478.855207	1.001108
479.224928	1.000504
479.594591	1.001256
479.964194	1.000819
480.333739	1.000287
480.703226	0.999909
481.072653	1.000501
481.442022	1.000742
481.811333	1.000364
482.180584	1.000337
482.549777	1.000255
482.918912	1.000686
483.287988	1.000721
483.657005	1.000515
484.025964	1.000297
484.394864	1.000280
484.763706	1.000096
485.132489	1.000437
485.501213	1.000790
485.869879	1.000624
486.238487	1.000081
486.607036	1.000659
486.975527	1.000846
487.343959	0.999928
487.712333	0.999983
488.080648	0.999749
488.448905	1.000395
488.817104	1.000536
489.185244	1.000332
489.553326	1.000613
489.921350	1.000774
490.289315	1.001161
490.657222	1.000041
491.025070	1.001103
491.392861	1.000508
491.760593	1.000690
492.128267	1.000788
492.495883	0.999683
492.863440	1.000517
493.230939	1.000256
493.598380	1.000991
493.965763	1.000336
494.333088	1.000734
494.700354	1.000129
495.067563	1.000227
495.434713	1.000395
495.801805	1.000138
496.168839	1.000267
496.535815	1.000450
496.902733	0.999632
497.269593	1.000270
497.636395	1.000426
498.003139	1.000243
498.369825	1.000732
498.736453	1.000348
499.103023	1.000703
499.469535	1.000458
499.835989	1.000231
500.202385	1.000217
500.568723	1.000282
500.935003	1.000218
501.301226	1.000611
501.667390	0.999804
502.033497	0.999891
502.399546	1.000882
502.765537	1.000323
503.131470	1.000949
503.497345	1.000428
503.863163	1.000523
504.228923	1.000923
504.594625	1.000429
504.960269	1.000173
505.325856	1.000739
505.691385	1.000853
506.056856	1.000620
506.422270	1.000269
506.787625	1.000341
507.152924	1.000637
507.518164	1.000127
507.883347	1.000770
508.248472	1.000361
508.613540	1.000365
508.978550	1.000851
509.343503	1.000228
509.708398	1.000487
510.073236	1.001286
510.438016	0.999985
510.802738	1.000140
511.167403	0.999997
511.532010	1.000421
511.896561	1.000593
512.261053	1.000381
512.625488	1.000590
512.989866	1.000246
513.354186	1.000749
513.718449	1.000652
514.082655	1.000329
514.446803	1.000453
514.810894	1.001142
515.174927	1.000540
515.538904	1.000584
515.902822	1.000938
516.266684	1.000710
516.630488	1.000595
516.994235	1.000648
517.357925	1.000368
517.721558	1.000388
518.085133	0.999836
518.448651	1.000731
518.812112	1.001129
519.175516	1.000909
519.538863	0.999998
519.902152	1.000467
520.265385	1.001032
520.628560	1.000211
520.991678	1.000365
521.354739	1.001244
521.717743	1.000552
522.080690	0.999857
522.443580	1.000192
522.806413	0.999604
523.169189	1.000852
523.531908	0.999948
523.894569	1.000625
524.257174	1.000685
524.619722	1.000356
524.982213	1.001125
525.344647	1.000523
525.707025	1.000343
526.069345	1.000326
526.431608	1.001279
526.793815	1.001147
527.155964	1.001159
527.518057	1.000739
527.880093	1.000352
528.242072	1.000338
528.603995	1.000325
528.965860	1.000946
529.327669	1.000425
529.689421	1.000214
530.051117	1.000958
530.412755	1.000296
530.774337	1.000631
531.135862	1.001278
531.497331	1.000274
531.858743	1.001049
532.220098	1.000329
532.581396	1.000950
532.942638	1.001237
533.303824	1.000814
533.664953	1.000221
534.026025	1.001450
534.387040	1.001179
534.747999	0.999842
535.108902	1.001087
535.469748	1.001082
535.830537	1.000845
536.191270	1.000816
536.551947	1.000650
536.912567	1.000384
537.273131	1.001241
537.633638	1.000633
537.994089	1.000588
538.354483	1.000685
538.714821	1.000477
539.075103	1.000774
539.435328	1.001067
539.795497	1.001143
540.155609	1.000400
540.515665	1.000737
540.875665	1.000171
541.235609	1.001453
541.595496	1.000056
541.955328	1.000861
542.315102	1.001289
542.674821	1.000660
543.034483	1.001022
543.394090	1.000104
543.753640	1.001095
544.113134	1.000073
544.472571	1.000936
544.831953	1.000443
545.191278	1.000592
545.550548	1.000026
545.909761	1.000735
546.268918	1.000911
546.628019	1.001246
546.987064	1.000333
547.346053	1.000306
547.704986	1.000478
548.063863	1.000723
548.422684	1.000097
548.781449	1.000491
549.140158	1.001007
549.498811	1.000106
549.857408	1.000133
550.215949	0.999731
550.574434	0.999868
550.932864	1.001052
551.291237	1.000635
551.649555	1.000024
552.007817	1.000580
552.366022	1.001137
552.724173	1.000753
553.082267	1.000403
553.440305	1.000074
553.798288	1.000084
554.156215	1.000431
554.514086	1.000049
554.871902	1.000504
555.229661	0.999907
555.587365	1.001008
555.945014	1.001069
556.302606	0.999781
556.660143	1.000733
557.017625	1.001063
557.375050	1.000118
557.732421	1.000243
558.089735	0.999652
558.446994	1.000412
558.804197	0.999841
559.161345	0.999788
559.518437	1.000182
559.875474	1.000387
560.232455	1.000646
560.589381	1.000598
560.946251	0.999873
561.303065	1.000602
561.659825	1.000176
562.016528	1.000678
562.373177	1.000230
562.729770	1.000384
563.086307	0.999465
563.442789	1.001185
563.799216	0.999938
564.155587	0.999823
564.511904	1.000732
564.868164	0.999586
565.224370	1.000727
565.580520	1.000672
565.936615	1.000691
566.292654	1.000174
566.648638	1.000767
567.004567	1.000720
567.360441	1.001383
567.716260	1.000069
568.072023	0.999786
568.427732	1.000230
568.783385	1.000401
569.138982	1.000402
569.494525	1.000639
569.850013	1.001045
570.205445	1.000281
570.560823	1.000535
570.916145	0.999848
571.271412	1.001131
571.626625	1.000335
571.981782	1.000276
572.336884	1.000468
572.691931	1.000343
573.046923	1.001102
573.401860	1.000000
573.756743	1.000582
574.111570	1.000714
574.466342	1.000931
574.821059	0.999998
575.175722	1.000961
575.530330	1.001005
575.884882	1.000281
576.239380	1.000158
576.593823	1.000399
576.948211	1.000729
577.302544	1.000333
577.656823	1.000489
578.011047	0.999617
578.365216	1.001069
578.719330	1.000612
579.073389	0.999778
579.427394	1.000474
579.781344	1.000742
580.135239	0.999366
580.489080	1.000422
580.842866	1.000479
581.196597	1.000495
581.550273	0.999845
581.903895	1.000306
582.257463	1.000219
582.610975	1.000504
582.964434	1.000948
583.317837	1.000931
583.671186	1.000408
584.024481	1.000264
584.377721	0.999715
584.730906	1.000727
585.084037	1.001091
585.437113	1.001008
585.790135	1.000726
586.143103	1.000480
586.496016	1.000641
586.848874	1.000666
587.201679	0.999845
587.554428	0.999968
587.907124	1.000192
588.259765	1.000653
588.612352	1.000689
588.964884	1.000838
589.317362	1.000206
589.669786	1.000192
590.022155	0.999693
590.374470	1.001407
590.726731	0.999937
591.078937	1.000910
591.431090	1.000357
591.783188	0.999572
592.135232	1.000535
592.487222	1.000713
592.839157	1.000392
593.191038	1.000592
593.542866	1.000011
593.894639	0.999668
594.246358	1.000583
594.598022	1.000394
594.949633	1.000464
595.301190	1.000113
595.652692	0.999850
596.004141	0.999996
596.355535	0.999577
596.706876	1.000494
597.058162	0.999595
597.409395	1.000407
597.760573	1.000122
598.111698	1.000362
598.462768	0.999263
598.813785	0.999599
599.164748	0.999980
599.515657	1.000002
599.866511	1.000324
600.217312	1.000520
600.568060	1.000693
600.918753	1.001048
601.269392	1.000715
601.619978	1.000769
601.970510	0.999968
602.320988	1.000377
602.671412	0.999790
603.021783	1.000479
603.372100	1.001229
603.722363	1.000135
604.072572	1.000171
604.422728	1.000472
604.772830	1.000012
605.122878	1.000647
605.472872	1.000731
605.822813	0.999530
606.172701	1.000386
606.522534	0.999999
606.872314	1.001354
607.222041	0.999743
607.571714	1.000641
607.921333	1.000022
608.270899	1.000020
608.620411	1.000179
608.969870	1.001408
609.319276	1.000571
609.668627	1.000866
610.017926	0.999849
610.367171	1.000180
610.716362	0.999870
611.065500	1.000333
611.414585	1.000601
611.763616	0.999371
612.112594	1.000398
612.461518	0.999172
612.810389	1.000235
613.159207	1.000166
613.507971	0.999045
613.856682	1.000945
614.205340	0.999472
614.553945	1.000377
614.902496	1.000139
615.250994	1.000521
615.599439	1.000870
615.947830	1.000829
616.296169	1.000398
616.644454	1.000243
616.992686	0.999956
617.340864	1.000840
617.688990	0.999890
618.037063	1.000204
618.385082	0.999117
618.733048	1.000108
619.080961	1.000391
619.428821	1.000336
619.776628	0.999345
620.124382	1.000660
620.472083	1.001019
620.819731	1.001279
621.167326	1.000138
621.514868	1.000182
621.862357	1.000644
622.209793	1.000333
622.557176	1.000404
622.904506	0.999290
623.251783	1.000076
623.599007	1.000477
623.946179	0.999775
624.293297	1.001087
624.640363	1.001216
624.987376	0.999444
625.334336	0.999840
625.681243	0.999862
626.028097	1.000974
626.374899	1.000075
626.721647	1.001354
627.068343	0.999588
627.414987	0.999863
627.761577	0.999641
628.108115	0.999128
628.454600	1.000889
628.801032	1.000676
629.147412	0.999471
629.493739	1.001402
629.840014	0.999861
630.186236	0.999644
630.532405	0.999950
630.878521	0.999977
631.224585	1.000672
631.570597	0.999928
631.916556	1.000383
632.262462	0.999413
632.608316	0.999741
632.954117	0.999209
633.299866	0.999878
633.645562	0.999744
633.991206	1.000463
634.336797	1.000341
634.682336	1.000300
635.027823	0.999896
635.373257	1.000636
635.718639	1.000601
636.063968	1.000177
636.409245	0.999275
636.754470	1.000691
637.099642	0.999671
637.444762	1.000238
637.789829	1.000091
638.134845	0.999829
638.479808	1.000078
638.824719	1.000571
639.169577	1.000523
639.514383	1.000887
639.859137	1.000428
640.203839	0.999292
640.548489	0.999310
640.893086	0.999709
641.237632	1.001102
641.582125	1.000048
641.926566	1.000412
642.270955	1.000952
642.615292	0.999379
642.959576	1.000258
643.303809	1.000559
643.647990	0.999660
643.992118	1.000636
644.336195	0.999767
644.680219	1.000086
645.024192	1.000912
645.368112	0.999578
645.711981	1.000218
646.055797	1.000320
646.399562	0.999381
646.743274	1.000684
647.086935	0.999831
647.430544	0.999891
647.774101	1.000389
648.117606	1.000453
648.461059	1.000618
648.804460	1.000067
649.147810	1.000132
649.491108	1.000397
649.834354	0.999490
650.177548	1.001159
650.520690	1.000514
650.863781	0.998873
651.206820	1.000024
651.549807	0.999969
651.892742	1.000402
652.235626	1.000496
652.578458	1.000305
652.921238	1.000325
653.263967	1.000330
653.606644	1.000344
653.949269	1.000564
654.291843	0.999403
654.634365	1.001210
654.976836	0.999179
655.319255	1.000546
655.661622	1.000479
656.003938	0.999996
656.346203	1.000102
656.688416	1.000524
657.030577	0.999872
657.372687	1.000295
657.714746	0.999656
658.056753	0.999245
658.398708	1.000417
658.740612	0.999548
659.082465	0.999674
659.424266	1.000827
659.766016	0.999215
660.107715	1.000488
660.449362	0.999764
660.790958	0.999857
661.132503	1.000425
661.473996	0.999843
661.815438	1.000363
662.156829	1.000769
662.498168	1.000825
662.839456	0.999447
663.180693	0.999907
663.521879	1.000154
663.863013	1.000445
664.204097	0.999620
664.545129	1.000538
664.886110	0.999900
665.227040	1.000307
665.567918	1.000185
665.908746	0.999349
666.249522	0.999330
666.590248	0.999985
666.930922	0.999081
667.271545	0.999956
667.612118	0.999966
667.952639	0.999945
668.293109	0.999335
668.633528	1.000331
668.973896	1.000498
669.314213	1.000118
669.654480	1.000686
669.994695	0.999614
670.334859	0.999820
670.674973	1.000236
671.015035	1.000111
671.355047	0.999910
671.695008	0.999497
672.034918	0.999602
672.374777	1.000610
672.714585	0.999468
673.054342	1.000640
673.394049	0.999583
673.733705	0.999407
674.073310	1.000352
674.412864	1.000745
674.752368	0.998968
675.091820	1.001570
675.431223	1.000308
675.770574	1.000045
676.109875	1.000120
676.449125	0.999315
676.788324	0.999775
677.127473	1.000415
677.466571	0.999798
677.805619	0.999725
678.144616	1.000852
678.483562	1.000181
678.822458	1.000595
679.161303	0.999863
679.500098	1.000271
679.838842	1.001326
680.177535	1.000163
680.516179	0.999373
680.854771	0.999755
681.193314	1.000013
681.531805	0.999842
681.870247	1.000572
682.208638	0.999908
682.546978	0.999497
682.885268	0.999646
683.223508	0.999211
683.561697	1.000197
683.899836	1.000076
684.237925	0.999754
684.575963	1.000297
684.913951	1.000146
685.251889	0.999417
685.589776	1.000393
685.927614	1.000062
686.265401	0.999784
686.603137	1.000167
686.940824	0.999171
687.278460	1.000477
687.616046	1.000342
687.953582	1.000724
688.291068	1.000390
688.628504	1.000439
