Dividing Wavelength (nm)	Counts (n)	Blue Motor Position (mm): 48.900000	Red Motor Position (mm): 0.000000	
326.493990	0.999891
326.888308	0.999891
327.282561	0.999891
327.676750	0.999686
328.070874	1.000738
328.464933	1.000715
328.858929	1.000876
329.252859	1.001015
329.646726	0.999082
330.040528	0.999865
330.434265	1.000352
330.827938	0.998409
331.221547	1.000339
331.615091	1.000261
332.008571	1.001944
332.401986	0.999713
332.795338	0.999878
333.188625	1.000971
333.581847	0.999861
333.975006	1.000260
334.368100	1.000067
334.761129	0.998212
335.154095	1.000465
335.546996	1.000432
335.939833	0.999461
336.332606	0.999968
336.725315	0.999407
337.117960	0.999887
337.510540	0.999641
337.903056	0.999966
338.295508	1.001669
338.687896	0.999863
339.080220	0.999404
339.472480	1.000317
339.864676	0.999451
340.256807	0.999221
340.648875	1.001104
341.040879	0.999784
341.432818	1.000689
341.824694	1.000296
342.216506	1.001010
342.608253	0.999819
342.999937	0.999919
343.391557	1.000240
343.783113	1.003041
344.174605	0.999432
344.566033	0.999833
344.957397	1.001123
345.348697	0.999859
345.739934	1.000123
346.131106	1.000043
346.522215	0.999207
346.913260	0.998764
347.304241	1.000152
347.695159	1.000423
348.086012	1.000753
348.476802	1.000038
348.867528	0.999752
349.258191	1.001198
349.648789	0.999468
350.039324	0.999840
350.429796	0.999272
350.820203	0.998796
351.210548	1.000011
351.600828	0.999655
351.991045	1.000302
352.381198	1.001228
352.771288	1.001202
353.161314	0.999800
353.551276	0.999184
353.941175	0.998580
354.331010	1.000717
354.720782	1.000814
355.110490	1.000438
355.500135	1.001026
355.889717	0.999090
356.279235	0.999049
356.668689	0.999952
357.058080	0.999568
357.447408	0.998902
357.836672	0.999959
358.225873	1.001022
358.615010	0.999887
359.004084	0.999872
359.393095	0.999924
359.782043	1.000306
360.170927	1.001164
360.559748	0.999448
360.948505	0.999169
361.337199	0.998888
361.725830	0.999823
362.114398	1.000486
362.502903	0.998887
362.891344	0.997463
363.279722	0.999048
363.668037	1.000528
364.056289	0.998778
364.444478	1.000587
364.832603	0.999553
365.220665	0.999533
365.608665	0.999744
365.996601	0.999366
366.384474	0.999068
366.772284	0.999961
367.160031	0.998782
367.547715	0.998909
367.935336	0.998936
368.322893	0.998248
368.710388	0.996316
369.097820	0.997514
369.485189	0.995450
369.872495	0.994949
370.259738	0.995622
370.646918	0.993610
371.034035	0.992928
371.421090	0.993382
371.808081	0.992474
372.195010	0.991012
372.581875	0.990695
372.968678	0.990965
373.355418	0.990494
373.742096	0.987552
374.128710	0.988572
374.515262	0.988282
374.901751	0.988485
375.288177	0.987953
375.674540	0.988454
376.060841	0.988044
376.447079	0.986271
376.833254	0.987190
377.219367	0.987670
377.605417	0.986490
377.991404	0.987492
378.377329	0.988807
378.763191	0.987559
379.148991	0.988521
379.534727	0.988281
379.920402	0.988949
380.306013	0.989392
380.691563	0.991104
381.077049	0.989331
381.462474	0.991266
381.847835	0.991289
382.233134	0.992839
382.618371	0.993417
383.003545	0.992089
383.388657	0.993759
383.773706	0.994230
384.158693	0.995006
384.543618	0.996579
384.928480	0.996271
385.313280	0.997166
385.698017	0.996773
386.082692	0.997589
386.467305	0.996826
386.851856	0.999778
387.236344	0.998438
387.620770	0.999433
388.005133	0.998238
388.389435	0.999093
388.773674	0.998874
389.157851	1.000185
389.541965	1.000404
389.926018	0.999202
390.310008	0.999714
390.693936	1.000563
391.077802	1.000151
391.461606	1.000037
391.845348	1.000146
392.229027	0.999494
392.612645	0.999639
392.996200	1.000504
393.379694	1.000211
393.763125	1.000871
394.146494	1.000549
394.529801	1.000299
394.913047	1.000686
395.296230	1.000587
395.679351	1.000131
396.062410	1.000972
396.445408	1.000833
396.828343	1.001002
397.211217	1.000492
397.594028	0.999602
397.976778	1.001429
398.359466	0.999433
398.742092	1.000495
399.124656	1.000255
399.507158	0.999454
399.889598	1.000768
400.271977	1.000959
400.654294	1.000275
401.036549	1.000404
401.418742	1.000495
401.800874	1.001120
402.182944	1.000373
402.564952	1.000926
402.946898	1.000716
403.328783	1.001104
403.710606	1.000254
404.092367	1.000848
404.474067	1.001889
404.855705	1.001903
405.237282	1.001038
405.618797	1.001309
406.000250	0.999718
406.381642	1.000576
406.762972	1.001784
407.144240	1.001171
407.525447	0.999047
407.906593	1.000074
408.287677	1.001012
408.668700	1.001481
409.049661	1.001040
409.430560	1.000961
409.811399	1.000891
410.192176	1.000571
410.572891	1.001830
410.953545	1.000501
411.334138	1.001573
411.714669	1.001558
412.095139	1.001056
412.475547	1.001594
412.855894	1.001265
413.236180	1.000686
413.616405	1.001062
413.996568	1.001045
414.376670	1.000543
414.756711	0.999916
415.136691	1.000996
415.516609	0.999829
415.896466	1.000530
416.276262	1.000638
416.655997	1.000159
417.035670	1.001272
417.415283	1.000768
417.794834	1.001221
418.174324	1.000369
418.553753	1.000915
418.933121	1.001461
419.312428	1.002386
419.691674	1.001864
420.070859	1.002057
420.449983	1.002360
420.829045	1.000774
421.208047	1.001254
421.586988	1.000724
421.965867	1.000148
422.344686	1.000330
422.723444	1.000072
423.102141	1.001382
423.480777	0.999880
423.859352	0.999398
424.237866	1.001814
424.616319	1.001737
424.994712	1.000890
425.373044	1.001527
425.751314	1.001167
426.129524	1.001825
426.507673	0.999633
426.885762	1.000715
427.263789	1.001064
427.641756	1.000201
428.019662	1.001484
428.397508	1.001436
428.775292	1.000291
429.153016	1.000356
429.530679	1.000975
429.908282	1.001424
430.285824	1.000873
430.663305	1.001758
431.040726	1.001687
431.418086	1.000744
431.795385	1.001524
432.172624	1.002100
432.549802	1.001583
432.926920	1.001002
433.303977	1.000501
433.680974	1.001890
434.057910	1.001713
434.434786	1.000975
434.811601	1.000932
435.188355	1.000899
435.565050	1.001396
435.941683	1.000088
436.318257	1.000395
436.694770	1.001355
437.071222	1.001878
437.447614	1.001831
437.823946	1.001666
438.200218	1.001120
438.576429	1.000935
438.952580	1.001429
439.328670	1.000979
439.704700	1.000441
440.080670	1.001076
440.456580	1.000891
440.832429	1.001310
441.208218	1.001359
441.583947	1.001416
441.959616	1.000339
442.335224	1.001930
442.710773	1.001334
443.086261	1.001446
443.461689	1.000448
443.837057	1.000944
444.212365	1.001234
444.587612	1.001575
444.962800	1.001853
445.337927	1.001963
445.712995	1.000895
446.088002	1.001225
446.462949	1.001329
446.837837	1.002136
447.212664	1.001417
447.587431	1.001876
447.962139	1.001476
448.336786	1.001005
448.711374	1.001129
449.085901	1.001303
449.460369	1.001812
449.834776	1.001037
450.209124	1.001060
450.583412	1.001532
450.957640	1.001372
451.331808	1.001840
451.705917	1.000730
452.079965	1.001761
452.453954	1.001632
452.827883	1.001076
453.201752	1.001688
453.575562	1.000515
453.949311	1.001996
454.323001	1.001370
454.696632	1.001501
455.070202	1.000478
455.443713	1.000800
455.817164	1.001371
456.190556	1.001273
456.563888	1.002066
456.937160	1.001255
457.310373	1.000960
457.683526	1.001473
458.056619	1.001578
458.429653	1.001309
458.802628	1.001318
459.175542	1.001053
459.548398	1.001580
459.921194	1.001256
460.293930	1.002283
460.666607	1.001561
461.039224	1.001360
461.411782	1.002272
461.784280	1.001254
462.156719	1.001839
462.529099	1.001995
462.901419	1.001760
463.273680	1.000259
463.645882	1.001636
464.018024	1.002176
464.390106	1.001777
464.762130	1.001895
465.134094	1.001338
465.505999	1.001229
465.877845	1.001374
466.249631	1.001722
466.621358	1.001193
466.993026	1.001356
467.364634	1.001535
467.736184	1.001317
468.107674	1.001335
468.479105	1.001574
468.850477	1.001399
469.221790	1.002175
469.593043	1.001528
469.964238	1.001360
470.335373	1.001468
470.706449	1.001554
471.077467	1.001552
471.448425	1.001405
471.819324	1.001706
472.190164	1.001737
472.560945	1.001682
472.931667	1.001023
473.302330	1.001675
473.672934	1.002109
474.043479	1.001422
474.413965	1.001694
474.784393	1.001834
475.154761	1.000898
475.525070	1.001516
475.895321	1.001905
476.265513	1.002007
476.635645	1.002477
477.005719	1.001846
477.375734	1.001180
477.745691	1.000880
478.115588	1.001348
478.485427	1.001573
478.855207	1.002337
479.224928	1.000858
479.594591	1.001791
479.964194	1.002167
480.333739	1.001823
480.703226	1.001362
481.072653	1.001406
481.442022	1.001589
481.811333	1.001908
482.180584	1.001834
482.549777	1.002256
482.918912	1.001670
483.287988	1.001119
483.657005	1.001381
484.025964	1.002310
484.394864	1.001423
484.763706	1.001523
485.132489	1.001768
485.501213	1.001209
485.869879	1.001721
486.238487	1.000314
486.607036	1.001785
486.975527	1.001426
487.343959	1.001632
487.712333	1.002398
488.080648	1.001399
488.448905	1.001705
488.817104	1.001043
489.185244	1.001577
489.553326	1.001332
489.921350	1.002042
490.289315	1.001673
490.657222	1.001296
491.025070	1.002048
491.392861	1.002331
491.760593	1.001717
492.128267	1.001264
492.495883	1.001096
492.863440	1.001556
493.230939	1.001053
493.598380	1.001449
493.965763	1.001480
494.333088	1.000896
494.700354	1.001168
495.067563	1.001467
495.434713	1.002072
495.801805	1.001099
496.168839	1.001777
496.535815	1.002375
496.902733	1.001432
497.269593	1.000984
497.636395	1.000854
498.003139	1.001513
498.369825	1.002394
498.736453	1.001358
499.103023	1.001830
499.469535	1.001846
499.835989	1.001507
500.202385	1.001262
500.568723	1.001168
500.935003	1.002453
501.301226	1.001685
501.667390	1.001507
502.033497	1.002029
502.399546	1.000788
502.765537	1.001942
503.131470	1.001619
503.497345	1.001284
503.863163	1.001950
504.228923	1.001416
504.594625	1.001725
504.960269	1.002006
505.325856	1.001952
505.691385	1.002161
506.056856	1.001532
506.422270	1.001527
506.787625	1.001725
507.152924	1.001666
507.518164	1.001277
507.883347	1.001571
508.248472	1.001683
508.613540	1.001001
508.978550	1.001475
509.343503	1.001430
509.708398	1.002111
510.073236	1.002032
510.438016	1.000583
510.802738	1.001322
511.167403	1.001306
511.532010	1.001846
511.896561	1.001899
512.261053	1.001469
512.625488	1.001728
512.989866	1.001525
513.354186	1.001058
513.718449	1.001841
514.082655	1.001062
514.446803	1.001688
514.810894	1.002097
515.174927	1.001459
515.538904	1.002071
515.902822	1.001074
516.266684	1.001563
516.630488	1.001533
516.994235	1.001500
517.357925	1.001500
517.721558	1.001368
518.085133	1.001486
518.448651	1.001836
518.812112	1.002040
519.175516	1.000970
519.538863	1.001412
519.902152	1.002283
520.265385	1.001597
520.628560	1.001211
520.991678	1.001816
521.354739	1.001689
521.717743	1.001500
522.080690	1.001362
522.443580	1.001597
522.806413	1.000654
523.169189	1.001817
523.531908	1.001637
523.894569	1.001459
524.257174	1.001401
524.619722	1.001633
524.982213	1.001566
525.344647	1.001903
525.707025	1.000755
526.069345	1.000620
526.431608	1.001564
526.793815	1.001533
527.155964	1.001294
527.518057	1.002172
527.880093	1.001195
528.242072	1.000755
528.603995	1.001194
528.965860	1.002143
529.327669	1.001602
529.689421	1.001489
530.051117	1.001396
530.412755	1.002248
530.774337	1.001162
531.135862	1.001440
531.497331	1.001402
531.858743	1.002373
532.220098	1.001360
532.581396	1.001519
532.942638	1.001670
533.303824	1.001733
533.664953	1.001188
534.026025	1.002163
534.387040	1.001467
534.747999	1.001193
535.108902	1.001735
535.469748	1.001692
535.830537	1.002020
536.191270	1.002102
536.551947	1.001091
536.912567	1.002086
537.273131	1.001637
537.633638	1.001402
537.994089	1.001943
538.354483	1.001291
538.714821	1.001258
539.075103	1.001766
539.435328	1.001329
539.795497	1.001573
540.155609	1.001382
540.515665	1.001841
540.875665	1.001314
541.235609	1.001766
541.595496	1.001278
541.955328	1.001140
542.315102	1.001658
542.674821	1.001839
543.034483	1.001878
543.394090	1.000904
543.753640	1.001341
544.113134	1.001830
544.472571	1.002078
544.831953	1.001773
545.191278	1.002016
545.550548	1.001188
545.909761	1.001212
546.268918	1.002488
546.628019	1.002210
546.987064	1.001802
547.346053	1.002023
547.704986	1.001428
548.063863	1.001642
548.422684	1.001794
548.781449	1.002040
549.140158	1.001948
549.498811	1.001197
549.857408	1.000570
550.215949	1.000694
550.574434	1.000893
550.932864	1.001653
551.291237	1.001800
551.649555	1.002321
552.007817	1.001516
552.366022	1.002102
552.724173	1.001795
553.082267	1.001286
553.440305	1.001471
553.798288	1.001038
554.156215	1.000939
554.514086	1.001406
554.871902	1.001533
555.229661	1.000969
555.587365	1.001300
555.945014	1.001581
556.302606	1.001113
556.660143	1.001846
557.017625	1.002099
557.375050	1.000930
557.732421	1.001390
558.089735	1.000861
558.446994	1.000944
558.804197	1.002123
559.161345	1.001705
559.518437	1.001172
559.875474	1.000718
560.232455	1.001655
560.589381	1.001329
560.946251	1.001263
561.303065	1.001409
561.659825	1.001548
562.016528	1.001872
562.373177	1.002322
562.729770	1.001818
563.086307	1.000933
563.442789	1.001613
563.799216	1.000977
564.155587	1.001867
564.511904	1.001982
564.868164	1.000723
565.224370	1.001567
565.580520	1.001619
565.936615	1.001462
566.292654	1.001605
566.648638	1.001560
567.004567	1.000959
567.360441	1.001816
567.716260	1.001306
568.072023	1.001167
568.427732	1.001246
568.783385	1.000794
569.138982	1.001489
569.494525	1.001287
569.850013	1.001964
570.205445	1.001790
570.560823	1.001573
570.916145	1.001145
571.271412	1.001689
571.626625	1.001495
571.981782	1.001433
572.336884	1.001761
572.691931	1.001388
573.046923	1.001888
573.401860	1.001191
573.756743	1.001827
574.111570	1.001228
574.466342	1.002108
574.821059	1.001417
575.175722	1.000833
575.530330	1.001088
575.884882	1.001576
576.239380	1.001196
576.593823	1.001451
576.948211	1.000940
577.302544	1.001285
577.656823	1.002050
578.011047	1.000641
578.365216	1.002583
578.719330	1.001826
579.073389	1.000891
579.427394	1.001731
579.781344	1.001967
580.135239	1.000326
580.489080	1.001534
580.842866	1.001042
581.196597	1.001214
581.550273	1.000687
581.903895	1.001984
582.257463	1.001881
582.610975	1.001452
582.964434	1.001710
583.317837	1.001837
583.671186	1.001986
584.024481	1.000883
584.377721	1.000304
584.730906	1.001690
585.084037	1.002516
585.437113	1.001851
585.790135	1.001835
586.143103	1.001170
586.496016	1.001994
586.848874	1.001899
587.201679	1.001003
587.554428	1.001518
587.907124	1.002032
588.259765	1.001256
588.612352	1.001576
588.964884	1.001678
589.317362	1.001124
589.669786	1.000618
590.022155	1.000865
590.374470	1.001343
590.726731	1.000760
591.078937	1.000891
591.431090	1.001417
591.783188	1.000520
592.135232	1.001966
592.487222	1.001636
592.839157	1.001726
593.191038	1.001630
593.542866	1.001301
593.894639	1.000465
594.246358	1.001462
594.598022	1.001033
594.949633	1.000931
595.301190	1.001092
595.652692	1.001137
596.004141	1.001521
596.355535	1.001674
596.706876	1.001429
597.058162	1.001453
597.409395	1.001830
597.760573	1.001538
598.111698	1.001181
598.462768	1.000568
598.813785	1.000948
599.164748	1.000629
599.515657	1.000959
599.866511	1.001959
600.217312	1.001692
600.568060	1.001153
600.918753	1.001923
601.269392	1.001306
601.619978	1.001276
601.970510	1.001679
602.320988	1.000689
602.671412	1.000979
603.021783	1.001744
603.372100	1.001033
603.722363	1.001169
604.072572	1.001410
604.422728	1.000956
604.772830	1.001019
605.122878	1.001267
605.472872	1.001391
605.822813	1.000835
606.172701	1.000959
606.522534	1.001414
606.872314	1.001424
607.222041	1.000695
607.571714	1.001175
607.921333	1.000485
608.270899	1.000518
608.620411	1.001432
608.969870	1.001936
609.319276	1.001166
609.668627	1.001563
610.017926	1.000573
610.367171	1.001172
610.716362	1.000500
611.065500	1.001190
611.414585	1.001483
611.763616	1.000845
612.112594	1.000843
612.461518	1.000393
612.810389	1.001270
613.159207	1.000693
613.507971	1.001094
613.856682	1.001290
614.205340	1.000224
614.553945	1.001796
614.902496	1.001004
615.250994	1.001015
615.599439	1.001668
615.947830	1.000740
616.296169	1.000940
616.644454	1.001411
616.992686	1.001173
617.340864	1.001372
617.688990	1.000553
618.037063	1.001464
618.385082	1.000609
618.733048	1.000109
619.080961	1.001183
619.428821	1.001179
619.776628	1.000729
620.124382	1.001110
620.472083	1.000996
620.819731	1.002534
621.167326	1.001136
621.514868	1.001489
621.862357	1.000713
622.209793	1.000389
622.557176	1.001280
622.904506	1.000082
623.251783	1.000956
623.599007	1.001849
623.946179	1.000565
624.293297	1.001738
624.640363	1.002101
624.987376	1.000467
625.334336	0.999905
625.681243	1.000436
626.028097	1.001008
626.374899	1.000506
626.721647	1.000874
627.068343	1.000493
627.414987	1.001035
627.761577	1.000760
628.108115	0.999690
628.454600	1.000851
628.801032	1.000441
629.147412	1.000494
629.493739	1.001534
629.840014	1.000297
630.186236	1.000664
630.532405	1.001237
630.878521	1.001225
631.224585	1.000271
631.570597	1.000597
631.916556	1.000585
632.262462	0.999809
632.608316	1.000713
632.954117	0.999911
633.299866	1.000242
633.645562	1.000104
633.991206	1.000838
634.336797	1.000712
634.682336	1.000920
635.027823	1.000568
635.373257	1.001266
635.718639	1.000728
636.063968	1.000305
636.409245	0.999920
636.754470	1.000142
637.099642	1.001246
637.444762	1.001020
637.789829	1.000941
638.134845	1.000612
638.479808	1.000532
638.824719	1.001091
639.169577	0.999781
639.514383	1.001375
639.859137	1.000588
640.203839	1.000043
640.548489	1.000476
640.893086	1.000042
641.237632	1.000885
641.582125	0.999331
641.926566	1.000791
642.270955	1.000556
642.615292	0.999481
642.959576	0.999796
643.303809	1.001007
643.647990	1.000583
643.992118	1.000741
644.336195	1.000011
644.680219	1.000559
645.024192	1.000495
645.368112	0.999813
645.711981	1.000523
646.055797	1.000485
646.399562	0.999642
646.743274	1.001441
647.086935	1.000006
647.430544	0.999917
647.774101	0.999385
648.117606	1.000514
648.461059	1.000668
648.804460	1.000153
649.147810	1.000400
649.491108	1.000227
649.834354	1.000329
650.177548	1.000297
650.520690	1.000049
650.863781	1.000118
651.206820	0.999806
651.549807	1.000569
651.892742	1.000026
652.235626	1.000985
652.578458	1.000175
652.921238	1.000877
653.263967	1.000839
653.606644	1.000226
653.949269	1.000930
654.291843	0.999993
654.634365	1.000929
654.976836	0.999319
655.319255	1.000720
655.661622	1.000501
656.003938	0.999674
656.346203	0.999562
656.688416	1.000794
657.030577	0.999553
657.372687	1.000422
657.714746	0.999499
658.056753	1.000291
658.398708	1.000043
658.740612	1.001343
659.082465	1.000221
659.424266	1.000690
659.766016	0.999183
660.107715	1.000611
660.449362	0.999852
660.790958	0.999705
661.132503	0.999897
661.473996	0.999996
661.815438	0.999847
662.156829	1.000668
662.498168	1.000513
662.839456	0.999631
663.180693	1.000443
663.521879	1.000388
663.863013	1.000508
664.204097	1.000220
664.545129	0.999696
664.886110	0.999755
665.227040	1.000266
665.567918	0.999936
665.908746	0.999201
666.249522	0.999605
666.590248	0.999902
666.930922	0.999855
667.271545	1.000162
667.612118	1.000135
667.952639	0.999865
668.293109	0.999525
668.633528	0.999728
668.973896	0.999617
669.314213	0.999420
669.654480	1.000004
669.994695	0.999461
670.334859	1.000082
670.674973	0.999257
671.015035	1.000158
671.355047	0.999485
671.695008	0.999814
672.034918	0.999470
672.374777	0.999866
672.714585	0.999816
673.054342	0.999860
673.394049	0.999377
673.733705	1.000284
674.073310	0.999846
674.412864	1.000181
674.752368	0.999365
675.091820	1.000632
675.431223	0.999397
675.770574	0.999127
676.109875	0.999234
676.449125	0.999619
676.788324	1.000044
677.127473	0.999994
677.466571	0.999337
677.805619	0.999576
678.144616	0.999760
678.483562	0.999643
678.822458	0.999802
679.161303	0.999560
679.500098	0.999867
679.838842	1.000178
680.177535	0.999602
680.516179	0.998655
680.854771	0.999120
681.193314	0.999453
681.531805	0.999365
681.870247	0.999160
682.208638	1.000208
682.546978	0.999129
682.885268	0.999490
683.223508	0.999635
683.561697	0.998612
683.899836	1.000142
684.237925	0.998843
684.575963	0.999267
684.913951	1.000165
685.251889	0.998859
685.589776	0.999233
685.927614	0.999466
686.265401	0.999212
686.603137	0.999811
686.940824	0.999167
687.278460	1.000062
687.616046	0.999652
687.953582	0.999725
688.291068	1.000197
688.628504	0.999484
