Dividing Wavelength (nm)	Counts (n)	Blue Motor Position (mm): 48.200000	Red Motor Position (mm): 0.000000	
326.493990	0.998944
326.888308	0.998944
327.282561	0.998944
327.676750	0.999110
328.070874	1.000894
328.464933	1.001402
328.858929	1.001735
329.252859	1.000356
329.646726	0.999416
330.040528	0.999230
330.434265	1.000254
330.827938	1.000429
331.221547	1.000736
331.615091	1.001030
332.008571	1.001202
332.401986	0.999427
332.795338	0.999529
333.188625	1.000446
333.581847	0.998527
333.975006	1.000118
334.368100	1.000716
334.761129	0.999911
335.154095	1.001008
335.546996	1.000725
335.939833	0.999265
336.332606	1.000104
336.725315	0.999304
337.117960	1.001760
337.510540	0.998332
337.903056	1.000193
338.295508	1.000060
338.687896	1.000186
339.080220	1.000302
339.472480	0.999648
339.864676	1.000683
340.256807	1.000330
340.648875	1.000733
341.040879	1.000555
341.432818	1.000717
341.824694	1.000489
342.216506	1.001382
342.608253	1.000678
342.999937	1.000044
343.391557	1.000519
343.783113	1.002134
344.174605	1.000236
344.566033	0.998753
344.957397	1.000919
345.348697	0.999926
345.739934	1.001066
346.131106	0.999593
346.522215	0.999266
346.913260	0.999923
347.304241	0.999868
347.695159	1.000672
348.086012	1.000413
348.476802	1.001400
348.867528	0.999693
349.258191	1.000476
349.648789	1.001459
350.039324	0.999739
350.429796	0.999953
350.820203	0.998367
351.210548	0.999597
351.600828	0.999854
351.991045	1.000410
352.381198	1.000290
352.771288	1.001026
353.161314	0.999499
353.551276	0.999504
353.941175	0.997628
354.331010	1.000861
354.720782	0.999684
355.110490	1.000276
355.500135	1.000126
355.889717	1.000380
356.279235	0.999530
356.668689	1.000497
357.058080	0.999191
357.447408	0.998798
357.836672	1.000782
358.225873	0.999504
358.615010	1.000473
359.004084	0.998613
359.393095	0.999728
359.782043	0.999099
360.170927	1.000574
360.559748	1.000762
360.948505	1.000466
361.337199	0.999624
361.725830	1.000486
362.114398	1.000940
362.502903	0.999717
362.891344	0.999650
363.279722	0.998882
363.668037	1.000718
364.056289	0.999424
364.444478	1.000046
364.832603	0.999791
365.220665	0.999679
365.608665	1.000296
365.996601	0.998879
366.384474	0.999692
366.772284	1.000204
367.160031	0.999887
367.547715	0.999454
367.935336	0.998496
368.322893	0.998024
368.710388	0.996432
369.097820	0.996147
369.485189	0.992815
369.872495	0.993665
370.259738	0.992273
370.646918	0.989944
371.034035	0.989923
371.421090	0.988775
371.808081	0.986137
372.195010	0.984289
372.581875	0.983302
372.968678	0.982679
373.355418	0.981488
373.742096	0.980301
374.128710	0.977928
374.515262	0.979067
374.901751	0.978125
375.288177	0.977045
375.674540	0.977143
376.060841	0.975555
376.447079	0.975598
376.833254	0.974552
377.219367	0.975229
377.605417	0.973903
377.991404	0.974727
378.377329	0.976085
378.763191	0.975056
379.148991	0.975673
379.534727	0.975359
379.920402	0.975644
380.306013	0.976855
380.691563	0.978932
381.077049	0.978599
381.462474	0.980061
381.847835	0.979114
382.233134	0.981565
382.618371	0.982954
383.003545	0.982595
383.388657	0.984503
383.773706	0.985040
384.158693	0.987227
384.543618	0.989061
384.928480	0.988502
385.313280	0.989898
385.698017	0.989731
386.082692	0.991226
386.467305	0.992480
386.851856	0.994737
387.236344	0.993849
387.620770	0.995195
388.005133	0.995811
388.389435	0.995055
388.773674	0.997219
389.157851	0.997870
389.541965	0.998278
389.926018	0.997507
390.310008	0.997813
390.693936	0.998627
391.077802	0.999530
391.461606	0.998411
391.845348	1.000237
392.229027	0.998117
392.612645	0.999699
392.996200	0.999934
393.379694	0.999356
393.763125	1.000125
394.146494	0.999522
394.529801	1.000268
394.913047	0.999028
395.296230	0.999628
395.679351	1.000263
396.062410	1.000650
396.445408	0.999363
396.828343	1.000497
397.211217	1.000904
397.594028	1.000106
397.976778	1.000412
398.359466	0.999160
398.742092	1.001133
399.124656	1.000017
399.507158	0.999587
399.889598	1.000486
400.271977	1.000382
400.654294	1.000040
401.036549	1.000396
401.418742	1.000620
401.800874	1.000166
402.182944	0.999056
402.564952	1.000771
402.946898	0.999771
403.328783	1.000265
403.710606	1.000303
404.092367	1.000251
404.474067	1.000999
404.855705	1.000895
405.237282	0.999703
405.618797	1.000158
406.000250	1.000183
406.381642	0.999778
406.762972	1.001090
407.144240	1.001050
407.525447	0.998729
407.906593	0.999163
408.287677	0.999686
408.668700	1.000423
409.049661	1.000785
409.430560	0.999855
409.811399	1.000115
410.192176	0.999845
410.572891	1.000394
410.953545	0.999565
411.334138	1.000210
411.714669	1.000087
412.095139	1.000385
412.475547	1.000915
412.855894	1.000073
413.236180	0.999960
413.616405	1.001189
413.996568	1.000128
414.376670	0.999778
414.756711	0.999086
415.136691	1.000557
415.516609	1.000180
415.896466	1.000908
416.276262	0.999482
416.655997	1.000358
417.035670	1.000763
417.415283	1.000350
417.794834	1.001166
418.174324	1.000937
418.553753	1.000054
418.933121	1.000095
419.312428	1.001597
419.691674	1.001508
420.070859	1.001117
420.449983	1.001424
420.829045	1.000289
421.208047	1.000892
421.586988	0.999856
421.965867	0.999154
422.344686	1.000597
422.723444	1.000199
423.102141	1.000071
423.480777	0.999863
423.859352	0.999903
424.237866	1.000671
424.616319	1.000532
424.994712	1.000216
425.373044	1.000012
425.751314	1.000145
426.129524	1.000528
426.507673	0.999687
426.885762	1.000134
427.263789	1.000521
427.641756	1.000521
428.019662	1.001162
428.397508	1.000469
428.775292	1.000023
429.153016	0.999597
429.530679	1.000492
429.908282	1.000195
430.285824	0.999792
430.663305	1.000578
431.040726	0.999922
431.418086	1.000753
431.795385	1.001086
432.172624	1.001021
432.549802	0.999447
432.926920	1.000913
433.303977	1.001218
433.680974	1.000506
434.057910	1.000672
434.434786	1.000037
434.811601	1.000093
435.188355	1.000055
435.565050	1.000620
435.941683	0.999864
436.318257	0.999426
436.694770	1.000443
437.071222	1.001246
437.447614	0.999908
437.823946	1.000142
438.200218	1.000552
438.576429	1.000240
438.952580	1.001190
439.328670	0.999932
439.704700	0.999793
440.080670	1.000745
440.456580	1.000466
440.832429	1.000331
441.208218	1.000161
441.583947	1.001184
441.959616	0.999339
442.335224	1.001403
442.710773	1.001148
443.086261	1.000368
443.461689	1.000479
443.837057	1.000114
444.212365	1.001199
444.587612	1.001032
444.962800	1.000609
445.337927	1.001581
445.712995	1.000372
446.088002	1.000427
446.462949	0.999763
446.837837	1.000822
447.212664	0.999773
447.587431	1.001029
447.962139	1.000922
448.336786	0.999620
448.711374	1.000180
449.085901	1.000656
449.460369	1.000162
449.834776	1.000259
450.209124	0.999741
450.583412	1.000449
450.957640	1.000191
451.331808	1.001222
451.705917	1.000829
452.079965	0.999757
452.453954	1.001411
452.827883	0.999967
453.201752	1.001071
453.575562	0.999886
453.949311	0.999848
454.323001	1.000997
454.696632	1.000706
455.070202	1.000541
455.443713	1.000307
455.817164	1.000481
456.190556	1.000074
456.563888	1.001458
456.937160	1.000955
457.310373	1.000005
457.683526	1.000239
458.056619	1.000619
458.429653	0.999649
458.802628	1.000707
459.175542	1.001108
459.548398	1.000423
459.921194	1.001099
460.293930	1.001301
460.666607	1.001219
461.039224	1.000602
461.411782	1.000653
461.784280	1.000362
462.156719	1.001494
462.529099	1.001427
462.901419	1.000629
463.273680	0.999313
463.645882	1.000412
464.018024	1.000631
464.390106	1.000793
464.762130	1.001224
465.134094	1.000650
465.505999	1.000450
465.877845	1.000258
466.249631	1.000640
466.621358	0.999966
466.993026	1.000807
467.364634	1.000565
467.736184	1.001041
468.107674	1.000626
468.479105	1.000355
468.850477	1.000867
469.221790	1.000947
469.593043	1.000109
469.964238	1.000590
470.335373	1.000183
470.706449	1.000360
471.077467	0.999639
471.448425	1.001067
471.819324	1.000988
472.190164	1.000462
472.560945	1.000871
472.931667	1.001122
473.302330	1.000872
473.672934	1.001321
474.043479	1.000774
474.413965	1.000910
474.784393	1.000542
475.154761	1.000665
475.525070	1.000375
475.895321	1.001020
476.265513	1.000592
476.635645	1.001168
477.005719	1.000100
477.375734	1.000382
477.745691	1.000799
478.115588	1.000893
478.485427	1.000846
478.855207	1.000800
479.224928	1.000139
479.594591	1.001169
479.964194	1.000885
480.333739	1.000620
480.703226	1.000318
481.072653	1.000525
481.442022	1.000847
481.811333	1.000597
482.180584	1.000337
482.549777	1.000478
482.918912	1.000204
483.287988	1.000214
483.657005	1.000525
484.025964	1.000033
484.394864	1.000350
484.763706	1.000081
485.132489	1.000705
485.501213	1.000380
485.869879	1.000428
486.238487	0.999661
486.607036	1.001253
486.975527	1.000677
487.343959	1.000380
487.712333	1.000213
488.080648	1.000290
488.448905	1.000807
488.817104	1.000023
489.185244	1.000408
489.553326	1.000617
489.921350	1.000912
490.289315	1.000400
490.657222	1.000125
491.025070	1.001212
491.392861	1.000449
491.760593	1.000105
492.128267	1.000417
492.495883	0.999888
492.863440	0.999891
493.230939	1.000540
493.598380	1.000571
493.965763	0.999998
494.333088	0.999948
494.700354	0.999689
495.067563	0.999831
495.434713	1.000503
495.801805	0.999725
496.168839	1.000621
496.535815	1.000583
496.902733	1.000303
497.269593	0.999731
497.636395	0.999615
498.003139	0.999666
498.369825	1.000755
498.736453	1.000432
499.103023	1.000489
499.469535	1.000259
499.835989	1.000406
500.202385	1.000517
500.568723	1.000166
500.935003	1.000532
501.301226	1.000031
501.667390	1.000141
502.033497	1.000061
502.399546	1.000533
502.765537	1.001219
503.131470	1.000480
503.497345	1.000133
503.863163	1.000283
504.228923	0.999870
504.594625	1.000396
504.960269	1.000467
505.325856	1.001016
505.691385	1.000845
506.056856	1.000076
506.422270	1.000335
506.787625	1.000119
507.152924	1.001039
507.518164	1.000655
507.883347	0.999498
508.248472	1.000196
508.613540	0.999944
508.978550	1.000204
509.343503	1.000284
509.708398	1.000949
510.073236	1.000619
510.438016	0.999734
510.802738	1.000132
511.167403	1.000367
511.532010	1.000796
511.896561	1.000390
512.261053	1.000537
512.625488	1.000198
512.989866	0.999740
513.354186	1.000039
513.718449	1.000164
514.082655	1.000027
514.446803	0.999688
514.810894	1.000826
515.174927	1.000613
515.538904	1.000980
515.902822	1.000928
516.266684	1.000332
516.630488	1.000925
516.994235	1.000283
517.357925	1.000941
517.721558	1.000312
518.085133	0.999904
518.448651	1.000528
518.812112	1.000492
519.175516	1.000332
519.538863	0.999743
519.902152	1.000723
520.265385	1.000359
520.628560	1.000081
520.991678	1.000485
521.354739	1.001379
521.717743	1.000710
522.080690	1.000247
522.443580	1.000484
522.806413	1.000258
523.169189	1.000472
523.531908	0.999776
523.894569	1.000437
524.257174	1.000111
524.619722	1.000385
524.982213	1.000460
525.344647	1.000137
525.707025	1.000228
526.069345	1.000540
526.431608	1.001008
526.793815	1.000935
527.155964	1.000498
527.518057	1.000653
527.880093	0.999981
528.242072	1.000683
528.603995	1.000204
528.965860	1.001070
529.327669	1.000890
529.689421	1.000218
530.051117	1.000498
530.412755	0.999920
530.774337	1.000731
531.135862	1.001241
531.497331	1.000074
531.858743	1.001177
532.220098	1.000141
532.581396	1.000368
532.942638	1.001151
533.303824	1.000750
533.664953	1.000029
534.026025	1.000820
534.387040	1.000221
534.747999	1.000183
535.108902	1.000364
535.469748	1.001195
535.830537	1.000841
536.191270	1.000525
536.551947	1.000175
536.912567	1.000734
537.273131	1.001492
537.633638	1.000719
537.994089	1.000725
538.354483	1.000483
538.714821	1.000705
539.075103	1.001089
539.435328	1.001323
539.795497	1.000967
540.155609	1.001057
540.515665	1.000745
540.875665	0.999987
541.235609	1.000349
541.595496	1.000450
541.955328	1.000843
542.315102	1.000639
542.674821	1.001202
543.034483	1.000497
543.394090	0.999942
543.753640	1.000831
544.113134	1.000233
544.472571	1.001150
544.831953	1.000672
545.191278	1.000186
545.550548	1.000245
545.909761	0.999348
546.268918	1.001240
546.628019	1.001130
546.987064	1.000427
547.346053	1.000159
547.704986	1.000642
548.063863	1.000579
548.422684	1.000354
548.781449	1.000117
549.140158	1.000475
549.498811	1.000133
549.857408	0.999844
550.215949	0.999977
550.574434	1.000304
550.932864	1.000694
551.291237	1.000346
551.649555	1.001351
552.007817	1.000654
552.366022	1.001222
552.724173	1.000575
553.082267	1.000293
553.440305	1.000828
553.798288	1.000480
554.156215	1.000642
554.514086	1.000510
554.871902	1.000653
555.229661	1.000038
555.587365	1.000498
555.945014	1.001350
556.302606	1.000793
556.660143	1.000959
557.017625	1.000347
557.375050	1.000506
557.732421	1.000489
558.089735	1.000036
558.446994	1.000707
558.804197	1.000313
559.161345	0.999868
559.518437	1.000496
559.875474	1.001078
560.232455	1.000846
560.589381	1.000528
560.946251	0.999915
561.303065	1.001104
561.659825	1.000157
562.016528	1.000884
562.373177	1.000676
562.729770	1.000565
563.086307	0.999704
563.442789	1.001111
563.799216	1.000346
564.155587	1.000736
564.511904	1.001468
564.868164	1.000367
565.224370	1.000845
565.580520	1.000678
565.936615	1.001223
566.292654	1.000191
566.648638	1.001481
567.004567	1.000654
567.360441	1.000984
567.716260	1.000507
568.072023	1.000253
568.427732	1.000745
568.783385	1.001499
569.138982	1.000965
569.494525	1.000600
569.850013	1.001001
570.205445	1.000828
570.560823	1.000600
570.916145	1.000317
571.271412	1.001119
571.626625	1.000760
571.981782	1.000702
572.336884	1.001088
572.691931	1.000753
573.046923	1.000626
573.401860	1.000677
573.756743	1.000256
574.111570	0.999737
574.466342	1.001201
574.821059	1.000353
575.175722	1.000826
575.530330	1.000437
575.884882	1.000971
576.239380	1.000997
576.593823	1.000180
576.948211	1.000374
577.302544	1.000355
577.656823	1.001226
578.011047	1.000262
578.365216	1.000906
578.719330	1.000421
579.073389	0.999844
579.427394	1.001077
579.781344	1.000819
580.135239	1.000150
580.489080	1.001390
580.842866	1.000805
581.196597	1.000497
581.550273	1.000594
581.903895	1.000999
582.257463	1.000555
582.610975	1.000339
582.964434	1.000977
583.317837	1.001097
583.671186	1.000947
584.024481	1.001077
584.377721	1.000103
584.730906	1.001313
585.084037	1.001871
585.437113	1.000994
585.790135	1.000756
586.143103	1.000850
586.496016	1.001189
586.848874	1.000755
587.201679	1.001042
587.554428	1.000670
587.907124	1.001114
588.259765	1.000738
588.612352	1.001541
588.964884	1.000913
589.317362	1.000231
589.669786	1.000606
590.022155	1.000399
590.374470	1.001444
590.726731	0.999477
591.078937	1.001073
591.431090	1.000339
591.783188	1.000497
592.135232	1.001272
592.487222	1.000995
592.839157	1.000931
593.191038	1.000592
593.542866	1.000477
593.894639	1.000179
594.246358	1.000372
594.598022	1.000908
594.949633	1.000994
595.301190	1.000096
595.652692	1.000204
596.004141	1.001074
596.355535	1.000596
596.706876	1.001150
597.058162	1.000595
597.409395	1.000721
597.760573	1.001151
598.111698	1.001419
598.462768	1.000308
598.813785	1.000122
599.164748	1.000164
599.515657	1.000687
599.866511	1.001475
600.217312	1.001155
600.568060	1.000834
600.918753	1.001058
601.269392	1.000448
601.619978	1.000883
601.970510	1.000768
602.320988	1.000747
602.671412	0.999920
603.021783	1.001461
603.372100	1.001076
603.722363	1.000807
604.072572	1.000997
604.422728	1.000201
604.772830	1.000460
605.122878	1.000890
605.472872	1.001386
605.822813	1.000058
606.172701	1.000742
606.522534	1.001128
606.872314	1.001232
607.222041	1.000539
607.571714	1.000135
607.921333	1.000862
608.270899	1.000474
608.620411	1.001591
608.969870	1.001500
609.319276	1.000797
609.668627	1.001410
610.017926	1.000336
610.367171	1.000947
610.716362	1.001343
611.065500	1.001027
611.414585	1.000840
611.763616	1.000143
612.112594	1.001020
612.461518	0.999780
612.810389	1.000995
613.159207	1.000434
613.507971	0.999772
613.856682	1.002175
614.205340	0.999829
614.553945	1.000774
614.902496	1.000452
615.250994	1.001295
615.599439	1.000897
615.947830	1.000832
616.296169	1.000842
616.644454	1.000432
616.992686	1.000685
617.340864	1.001577
617.688990	1.000122
618.037063	1.000443
618.385082	1.000629
618.733048	1.000271
619.080961	1.000470
619.428821	1.000886
619.776628	0.999983
620.124382	1.000923
620.472083	1.000347
620.819731	1.001666
621.167326	1.001092
621.514868	1.000752
621.862357	1.000918
622.209793	1.001044
622.557176	1.000685
622.904506	1.000218
623.251783	1.001034
623.599007	1.001161
623.946179	1.000619
624.293297	1.000913
624.640363	1.001187
624.987376	1.000643
625.334336	1.000229
625.681243	1.000292
626.028097	1.001080
626.374899	1.000805
626.721647	1.001421
627.068343	1.000600
627.414987	1.000369
627.761577	1.000220
628.108115	1.000858
628.454600	1.001255
628.801032	1.000897
629.147412	1.000721
629.493739	1.001965
629.840014	1.000820
630.186236	1.000740
630.532405	0.999781
630.878521	0.999920
631.224585	1.000947
631.570597	1.000255
631.916556	1.000723
632.262462	0.999850
632.608316	1.000676
632.954117	1.000063
633.299866	1.000450
633.645562	1.000296
633.991206	1.000552
634.336797	0.999862
634.682336	1.001444
635.027823	1.000520
635.373257	1.001216
635.718639	1.001999
636.063968	0.999887
636.409245	1.000565
636.754470	1.000201
637.099642	1.001020
637.444762	1.001091
637.789829	1.000404
638.134845	1.000179
638.479808	1.000645
638.824719	1.000630
639.169577	1.000436
639.514383	1.000555
639.859137	1.000869
640.203839	1.000405
640.548489	0.999927
640.893086	1.000489
641.237632	1.000454
641.582125	1.000439
641.926566	1.001102
642.270955	1.000317
642.615292	0.999881
642.959576	1.000073
643.303809	1.001132
643.647990	1.000712
643.992118	1.000976
644.336195	0.999523
644.680219	1.000500
645.024192	1.000612
645.368112	0.999837
645.711981	1.000361
646.055797	1.000180
646.399562	0.999934
646.743274	1.001120
647.086935	1.000220
647.430544	1.000415
647.774101	1.000074
648.117606	1.001169
648.461059	1.000729
648.804460	1.000867
649.147810	1.000204
649.491108	0.999632
649.834354	1.000974
650.177548	1.000211
650.520690	1.000215
650.863781	0.999327
651.206820	1.000270
651.549807	1.000546
651.892742	1.001785
652.235626	1.001154
652.578458	1.000109
652.921238	1.000358
653.263967	1.000935
653.606644	1.000697
653.949269	1.001210
654.291843	0.999879
654.634365	1.000555
654.976836	0.999429
655.319255	1.001247
655.661622	1.001014
656.003938	1.000888
656.346203	0.999965
656.688416	1.001707
657.030577	1.000150
657.372687	0.999964
657.714746	0.999261
658.056753	0.999779
658.398708	0.999957
658.740612	1.000902
659.082465	1.000500
659.424266	1.000319
659.766016	0.999964
660.107715	1.000233
660.449362	1.000596
660.790958	0.999962
661.132503	1.000465
661.473996	1.000309
661.815438	1.000259
662.156829	0.999761
662.498168	1.000603
662.839456	0.999323
663.180693	0.999762
663.521879	1.000081
663.863013	1.001266
664.204097	1.000003
664.545129	1.000676
664.886110	1.000840
665.227040	0.999823
665.567918	1.000914
665.908746	1.000108
666.249522	0.999681
666.590248	0.999806
666.930922	1.000268
667.271545	1.000264
667.612118	1.000194
667.952639	1.000354
668.293109	1.000680
668.633528	0.999839
668.973896	1.000710
669.314213	1.000220
669.654480	1.000543
669.994695	0.999418
670.334859	1.000079
670.674973	1.000524
671.015035	1.000355
671.355047	1.000112
671.695008	1.000002
672.034918	0.999181
672.374777	1.000841
672.714585	1.000281
673.054342	1.000510
673.394049	0.999518
673.733705	0.999727
674.073310	1.000909
674.412864	0.999357
674.752368	0.999759
675.091820	1.000961
675.431223	1.000776
675.770574	0.999688
676.109875	1.000356
676.449125	0.999614
676.788324	1.000572
677.127473	1.000869
677.466571	1.000288
677.805619	0.999973
678.144616	1.000542
678.483562	1.000120
678.822458	0.999718
679.161303	0.999172
679.500098	1.000119
679.838842	0.999919
680.177535	1.000115
680.516179	1.000663
680.854771	0.999004
681.193314	1.000251
681.531805	0.999704
681.870247	1.000108
682.208638	1.000110
682.546978	0.999539
682.885268	0.999681
683.223508	0.999597
683.561697	0.999394
683.899836	1.000021
684.237925	0.999693
684.575963	1.000016
684.913951	0.999965
685.251889	0.999761
685.589776	1.000218
685.927614	0.998892
686.265401	0.999405
686.603137	0.999466
686.940824	1.000656
687.278460	1.000435
687.616046	0.999544
687.953582	1.000027
688.291068	0.999877
688.628504	0.999881
