Dividing Wavelength (nm)	Counts (n)	Blue Motor Position (mm): 0.000000	Red Motor Position (mm): 47.900000	
326.493990	1.000063
326.888308	1.000063
327.282561	1.000063
327.676750	0.999478
328.070874	0.998852
328.464933	1.001041
328.858929	1.000881
329.252859	0.999629
329.646726	0.999525
330.040528	0.999566
330.434265	0.998383
330.827938	1.000738
331.221547	1.001055
331.615091	0.999785
332.008571	0.999702
332.401986	0.999586
332.795338	1.000305
333.188625	0.997154
333.581847	1.000321
333.975006	0.999000
334.368100	0.999051
334.761129	1.000970
335.154095	1.001404
335.546996	0.999264
335.939833	0.999195
336.332606	1.000204
336.725315	1.000297
337.117960	1.001333
337.510540	1.000410
337.903056	0.999633
338.295508	0.998377
338.687896	1.000946
339.080220	0.999903
339.472480	1.000560
339.864676	1.000826
340.256807	0.999298
340.648875	1.001118
341.040879	0.999586
341.432818	1.000339
341.824694	0.999535
342.216506	1.000669
342.608253	1.001105
342.999937	1.000103
343.391557	1.000922
343.783113	0.999637
344.174605	1.000902
344.566033	1.001265
344.957397	0.999119
345.348697	0.999469
345.739934	1.000699
346.131106	1.000095
346.522215	0.999307
346.913260	1.000275
347.304241	1.000540
347.695159	1.000011
348.086012	1.000304
348.476802	1.000281
348.867528	1.000439
349.258191	0.999751
349.648789	1.000321
350.039324	0.999983
350.429796	1.000875
350.820203	1.000721
351.210548	1.000260
351.600828	1.000029
351.991045	1.000463
352.381198	0.998673
352.771288	0.999575
353.161314	0.999969
353.551276	1.000672
353.941175	0.999640
354.331010	1.000623
354.720782	1.000006
355.110490	0.998929
355.500135	0.999841
355.889717	1.000134
356.279235	0.998505
356.668689	0.999204
357.058080	0.999100
357.447408	1.000869
357.836672	1.001000
358.225873	1.002259
358.615010	1.000131
359.004084	1.001554
359.393095	1.000401
359.782043	1.000505
360.170927	1.000999
360.559748	1.000716
360.948505	0.999656
361.337199	0.999944
361.725830	1.000789
362.114398	1.000528
362.502903	1.000743
362.891344	1.001804
363.279722	1.000479
363.668037	1.001205
364.056289	1.000448
364.444478	1.001968
364.832603	1.000517
365.220665	0.999823
365.608665	1.000794
365.996601	0.999638
366.384474	1.000510
366.772284	1.000226
367.160031	0.999305
367.547715	0.999033
367.935336	1.000217
368.322893	0.999945
368.710388	0.999536
369.097820	0.999507
369.485189	0.999639
369.872495	0.998855
370.259738	0.998210
370.646918	1.001327
371.034035	1.000043
371.421090	1.000223
371.808081	0.999969
372.195010	1.000770
372.581875	1.000985
372.968678	1.001047
373.355418	1.000282
373.742096	1.000301
374.128710	1.000853
374.515262	0.999169
374.901751	1.001422
375.288177	0.999948
375.674540	1.000591
376.060841	1.000071
376.447079	1.000553
376.833254	0.999377
377.219367	0.999814
377.605417	1.000495
377.991404	1.000906
378.377329	0.998990
378.763191	0.999126
379.148991	1.000675
379.534727	1.000365
379.920402	0.999331
380.306013	1.000846
380.691563	1.000909
381.077049	0.999865
381.462474	1.000633
381.847835	1.000448
382.233134	1.000361
382.618371	1.000487
383.003545	0.999721
383.388657	0.999537
383.773706	1.001174
384.158693	1.000377
384.543618	1.000202
384.928480	1.000742
385.313280	1.000266
385.698017	1.000714
386.082692	1.000809
386.467305	1.001060
386.851856	0.999035
387.236344	0.999792
387.620770	0.999297
388.005133	1.000981
388.389435	1.001039
388.773674	0.999550
389.157851	1.000959
389.541965	0.999956
389.926018	0.999410
390.310008	1.000789
390.693936	0.999960
391.077802	1.000187
391.461606	1.000024
391.845348	1.000477
392.229027	1.002310
392.612645	1.000329
392.996200	1.000930
393.379694	0.999840
393.763125	1.001277
394.146494	1.000775
394.529801	1.000641
394.913047	1.000786
395.296230	1.000332
395.679351	1.000676
396.062410	0.999544
396.445408	1.000101
396.828343	1.000471
397.211217	0.999551
397.594028	1.000614
397.976778	1.000150
398.359466	1.000764
398.742092	1.000003
399.124656	1.000498
399.507158	1.000508
399.889598	1.000448
400.271977	1.001335
400.654294	1.000993
401.036549	1.001240
401.418742	1.001327
401.800874	0.998978
402.182944	1.001348
402.564952	1.000069
402.946898	1.001323
403.328783	1.000746
403.710606	1.000460
404.092367	1.000653
404.474067	1.000669
404.855705	1.000507
405.237282	1.000623
405.618797	1.000944
406.000250	1.000190
406.381642	1.000406
406.762972	1.000457
407.144240	1.001205
407.525447	1.001238
407.906593	1.001455
408.287677	1.001741
408.668700	1.000928
409.049661	0.999370
409.430560	1.000959
409.811399	1.000378
410.192176	0.999971
410.572891	0.999890
410.953545	0.999628
411.334138	0.999196
411.714669	1.001295
412.095139	0.999981
412.475547	1.000901
412.855894	1.001249
413.236180	0.999947
413.616405	1.000581
413.996568	1.001007
414.376670	1.000448
414.756711	1.000601
415.136691	1.000218
415.516609	1.000808
415.896466	1.000122
416.276262	0.999921
416.655997	1.000446
417.035670	1.000150
417.415283	1.000908
417.794834	1.001317
418.174324	1.000598
418.553753	1.001894
418.933121	1.000224
419.312428	1.000895
419.691674	1.001322
420.070859	1.000519
420.449983	1.001016
420.829045	1.000115
421.208047	1.001098
421.586988	1.001976
421.965867	1.000215
422.344686	1.001548
422.723444	1.000310
423.102141	1.000702
423.480777	1.000894
423.859352	1.000789
424.237866	1.000338
424.616319	1.000943
424.994712	1.001046
425.373044	1.001530
425.751314	1.001328
426.129524	1.000440
426.507673	1.001027
426.885762	1.000912
427.263789	1.001170
427.641756	1.000971
428.019662	1.000901
428.397508	0.999823
428.775292	1.000029
429.153016	1.000024
429.530679	1.000361
429.908282	1.001156
430.285824	0.999750
430.663305	0.999662
431.040726	1.000589
431.418086	1.002492
431.795385	1.001004
432.172624	1.000191
432.549802	1.001282
432.926920	1.000464
433.303977	1.000774
433.680974	1.001055
434.057910	1.000292
434.434786	1.001179
434.811601	1.000679
435.188355	0.999732
435.565050	1.000120
435.941683	1.000781
436.318257	1.001506
436.694770	1.000604
437.071222	1.001516
437.447614	1.000714
437.823946	1.001108
438.200218	1.001094
438.576429	1.000696
438.952580	1.001577
439.328670	1.000885
439.704700	1.000940
440.080670	1.000669
440.456580	1.001016
440.832429	1.000178
441.208218	1.000797
441.583947	1.001422
441.959616	1.000761
442.335224	1.000832
442.710773	1.001691
443.086261	1.000458
443.461689	1.000958
443.837057	1.000824
444.212365	1.001063
444.587612	1.001056
444.962800	1.000636
445.337927	1.000150
445.712995	1.000869
446.088002	1.001707
446.462949	1.001314
446.837837	1.002402
447.212664	1.000931
447.587431	1.001453
447.962139	1.001073
448.336786	1.001147
448.711374	1.001666
449.085901	1.000616
449.460369	1.001584
449.834776	1.000548
450.209124	1.001844
450.583412	1.001059
450.957640	1.000816
451.331808	1.000516
451.705917	1.001339
452.079965	1.000290
452.453954	1.001028
452.827883	1.000813
453.201752	1.001659
453.575562	1.001603
453.949311	1.001422
454.323001	1.000886
454.696632	1.000660
455.070202	1.000829
455.443713	1.000075
455.817164	1.000731
456.190556	1.000885
456.563888	1.000676
456.937160	1.000767
457.310373	1.000648
457.683526	1.000918
458.056619	1.001361
458.429653	1.001716
458.802628	1.000184
459.175542	1.000017
459.548398	1.001106
459.921194	1.000835
460.293930	1.001376
460.666607	1.000234
461.039224	0.999698
461.411782	1.000578
461.784280	0.999830
462.156719	1.000969
462.529099	1.000743
462.901419	1.001154
463.273680	1.000440
463.645882	1.000875
464.018024	1.000968
464.390106	1.001587
464.762130	1.001272
465.134094	1.000589
465.505999	1.001145
465.877845	1.000555
466.249631	1.000711
466.621358	1.001101
466.993026	1.001154
467.364634	1.000890
467.736184	1.001102
468.107674	1.000954
468.479105	1.000428
468.850477	1.001172
469.221790	1.000790
469.593043	1.000842
469.964238	1.002235
470.335373	1.000864
470.706449	1.001055
471.077467	1.001784
471.448425	1.001405
471.819324	1.001950
472.190164	1.000402
472.560945	1.000633
472.931667	1.000502
473.302330	1.000536
473.672934	1.001048
474.043479	1.000746
474.413965	1.001015
474.784393	1.000521
475.154761	1.000670
475.525070	1.000108
475.895321	1.001646
476.265513	1.000558
476.635645	1.000196
477.005719	1.001640
477.375734	1.000844
477.745691	1.000760
478.115588	1.000778
478.485427	1.001221
478.855207	1.000808
479.224928	1.001000
479.594591	1.001364
479.964194	1.001296
480.333739	1.001136
480.703226	1.001302
481.072653	1.001302
481.442022	1.001586
481.811333	1.000088
482.180584	1.002344
482.549777	1.000576
482.918912	1.000747
483.287988	1.001400
483.657005	1.000827
484.025964	1.001954
484.394864	1.001062
484.763706	1.001086
485.132489	1.001554
485.501213	1.000838
485.869879	1.001212
486.238487	1.001269
486.607036	1.001695
486.975527	1.000369
487.343959	1.001154
487.712333	1.000720
488.080648	1.001054
488.448905	1.000831
488.817104	1.001464
489.185244	1.001003
489.553326	1.001417
489.921350	1.000275
490.289315	1.000849
490.657222	1.001449
491.025070	1.001172
491.392861	1.001828
491.760593	1.001582
492.128267	1.000969
492.495883	1.000921
492.863440	1.001750
493.230939	1.001430
493.598380	1.000751
493.965763	1.001004
494.333088	1.001210
494.700354	1.000531
495.067563	1.000774
495.434713	1.000842
495.801805	1.001897
496.168839	1.001217
496.535815	1.001262
496.902733	1.001022
497.269593	1.001098
497.636395	1.001573
498.003139	1.000912
498.369825	1.001582
498.736453	1.001131
499.103023	1.000432
499.469535	1.000362
499.835989	1.001130
500.202385	1.001227
500.568723	1.001464
500.935003	1.000933
501.301226	1.001684
501.667390	1.000928
502.033497	1.001028
502.399546	1.001795
502.765537	1.000500
503.131470	1.001031
503.497345	1.000771
503.863163	1.001655
504.228923	1.000821
504.594625	1.001362
504.960269	1.001461
505.325856	1.001118
505.691385	1.000960
506.056856	1.001191
506.422270	1.001008
506.787625	1.001463
507.152924	1.000908
507.518164	1.000649
507.883347	1.001257
508.248472	1.000821
508.613540	1.001043
508.978550	1.001803
509.343503	1.000376
509.708398	1.001414
510.073236	1.000925
510.438016	1.001720
510.802738	1.001181
511.167403	1.000661
511.532010	1.000675
511.896561	1.000686
512.261053	1.001792
512.625488	1.000584
512.989866	1.000798
513.354186	1.001431
513.718449	1.001449
514.082655	1.000738
514.446803	1.000553
514.810894	1.001711
515.174927	1.001254
515.538904	1.000212
515.902822	1.001787
516.266684	1.001780
516.630488	1.001601
516.994235	1.000511
517.357925	1.001162
517.721558	1.001614
518.085133	1.000277
518.448651	1.002144
518.812112	1.000789
519.175516	1.001026
519.538863	1.001084
519.902152	1.000916
520.265385	1.001104
520.628560	1.001289
520.991678	1.001137
521.354739	1.001576
521.717743	1.001399
522.080690	1.001480
522.443580	1.001197
522.806413	1.001575
523.169189	1.001240
523.531908	1.001163
523.894569	1.001301
524.257174	1.001113
524.619722	1.001386
524.982213	1.001326
525.344647	1.000944
525.707025	1.000914
526.069345	1.000000
526.431608	1.000899
526.793815	1.001168
527.155964	1.001008
527.518057	1.000596
527.880093	1.001475
528.242072	1.000922
528.603995	1.001012
528.965860	1.001726
529.327669	1.001214
529.689421	1.000943
530.051117	1.001342
530.412755	1.001125
530.774337	1.001323
531.135862	1.001309
531.497331	1.001183
531.858743	1.000897
532.220098	1.001390
532.581396	1.001195
532.942638	1.001373
533.303824	1.001088
533.664953	1.001693
534.026025	1.000879
534.387040	1.000974
534.747999	1.000977
535.108902	1.001524
535.469748	1.001693
535.830537	1.001527
536.191270	1.001658
536.551947	1.001023
536.912567	1.001448
537.273131	1.002007
537.633638	1.001005
537.994089	1.001354
538.354483	1.001109
538.714821	1.000634
539.075103	1.001267
539.435328	1.001149
539.795497	1.001292
540.155609	1.000548
540.515665	1.001359
540.875665	1.000995
541.235609	1.000819
541.595496	1.000981
541.955328	1.000328
542.315102	1.001178
542.674821	1.001090
543.034483	1.001032
543.394090	1.000510
543.753640	1.001591
544.113134	1.001565
544.472571	1.001553
544.831953	1.001713
545.191278	1.000882
545.550548	1.001374
545.909761	1.000447
546.268918	1.001178
546.628019	1.001058
546.987064	1.001246
547.346053	1.001215
547.704986	1.001530
548.063863	1.001006
548.422684	1.001440
548.781449	1.001619
549.140158	1.000440
549.498811	1.000950
549.857408	1.001025
550.215949	1.001389
550.574434	1.001030
550.932864	1.000937
551.291237	1.001809
551.649555	1.001364
552.007817	1.000662
552.366022	1.000909
552.724173	1.001297
553.082267	1.001556
553.440305	1.000369
553.798288	1.001152
554.156215	1.000752
554.514086	1.001855
554.871902	1.000976
555.229661	1.000773
555.587365	1.000732
555.945014	1.001470
556.302606	1.000936
556.660143	1.001255
557.017625	1.000409
557.375050	1.001692
557.732421	1.001632
558.089735	1.001461
558.446994	1.001829
558.804197	1.001641
559.161345	1.001384
559.518437	1.001765
559.875474	1.000467
560.232455	1.001081
560.589381	1.001898
560.946251	1.000627
561.303065	1.000756
561.659825	1.001147
562.016528	1.000293
562.373177	1.001349
562.729770	1.000703
563.086307	1.001353
563.442789	1.000540
563.799216	1.001354
564.155587	1.000971
564.511904	1.000597
564.868164	1.000529
565.224370	1.000736
565.580520	1.001477
565.936615	1.000514
566.292654	1.000176
566.648638	1.001181
567.004567	1.000819
567.360441	1.000910
567.716260	1.001588
568.072023	1.001042
568.427732	1.001520
568.783385	1.001193
569.138982	1.001224
569.494525	1.001282
569.850013	1.000786
570.205445	1.000986
570.560823	1.000688
570.916145	1.000768
571.271412	1.001658
571.626625	1.001147
571.981782	1.000736
572.336884	1.001665
572.691931	1.000822
573.046923	1.001152
573.401860	1.001238
573.756743	1.001322
574.111570	1.001248
574.466342	1.000850
574.821059	1.000917
575.175722	1.001013
575.530330	1.000892
575.884882	1.000693
576.239380	1.001608
576.593823	1.001044
576.948211	1.001080
577.302544	1.001200
577.656823	1.000666
578.011047	1.001195
578.365216	1.000806
578.719330	1.000599
579.073389	1.001373
579.427394	1.001135
579.781344	1.001662
580.135239	1.001100
580.489080	1.000541
580.842866	1.001208
581.196597	1.000775
581.550273	1.001031
581.903895	1.001205
582.257463	1.001583
582.610975	1.000506
582.964434	1.000930
583.317837	1.002098
583.671186	1.000576
584.024481	1.000493
584.377721	1.000791
584.730906	1.001089
585.084037	1.000971
585.437113	1.000623
585.790135	1.000980
586.143103	1.000872
586.496016	1.001848
586.848874	1.000213
587.201679	1.000715
587.554428	1.001287
587.907124	1.000569
588.259765	1.001258
588.612352	1.001192
588.964884	1.001528
589.317362	1.001116
589.669786	1.000271
590.022155	1.001470
590.374470	1.000781
590.726731	1.000421
591.078937	1.000123
591.431090	1.000865
591.783188	1.000343
592.135232	1.001632
592.487222	1.001231
592.839157	1.001257
593.191038	1.000968
593.542866	1.000624
593.894639	1.002280
594.246358	1.000435
594.598022	1.001146
594.949633	1.000939
595.301190	1.000383
595.652692	1.000901
596.004141	1.001231
596.355535	1.000420
596.706876	1.001008
597.058162	1.001416
597.409395	1.000626
597.760573	1.000688
598.111698	1.000902
598.462768	1.000398
598.813785	1.000296
599.164748	1.001440
599.515657	1.000695
599.866511	1.000758
600.217312	1.000546
600.568060	1.001190
600.918753	1.001088
601.269392	1.000676
601.619978	1.000738
601.970510	1.001089
602.320988	1.001329
602.671412	1.000193
603.021783	1.000719
603.372100	1.001637
603.722363	1.001239
604.072572	1.001052
604.422728	1.001073
604.772830	1.000769
605.122878	1.000450
605.472872	1.000880
605.822813	0.999668
606.172701	1.000305
606.522534	1.000751
606.872314	1.001104
607.222041	1.000596
607.571714	1.001462
607.921333	1.000169
608.270899	1.000728
608.620411	1.001127
608.969870	1.001386
609.319276	1.000869
609.668627	1.001775
610.017926	0.999831
610.367171	1.000561
610.716362	1.001111
611.065500	1.000686
611.414585	1.000752
611.763616	1.000719
612.112594	1.000671
612.461518	1.000827
612.810389	0.999889
613.159207	1.000837
613.507971	1.000165
613.856682	1.001551
614.205340	1.001366
614.553945	0.999325
614.902496	1.000338
615.250994	1.000897
615.599439	1.001027
615.947830	1.001193
616.296169	1.000626
616.644454	1.000246
616.992686	1.000888
617.340864	0.999743
617.688990	1.000765
618.037063	1.001533
618.385082	1.000802
618.733048	1.000752
619.080961	1.000952
619.428821	1.001286
619.776628	1.000667
620.124382	1.000909
620.472083	0.999350
620.819731	1.001328
621.167326	0.999878
621.514868	1.000072
621.862357	1.000249
622.209793	1.001401
622.557176	0.999297
622.904506	1.000742
623.251783	1.000303
623.599007	1.000264
623.946179	0.999892
624.293297	1.000692
624.640363	1.000695
624.987376	0.999891
625.334336	1.001162
625.681243	1.000601
626.028097	1.001354
626.374899	1.000903
626.721647	1.001382
627.068343	1.000934
627.414987	1.000884
627.761577	1.000453
628.108115	1.000236
628.454600	1.001158
628.801032	1.000736
629.147412	1.000584
629.493739	0.999567
629.840014	1.000467
630.186236	1.000742
630.532405	1.000926
630.878521	1.000885
631.224585	1.001029
631.570597	1.000044
631.916556	1.000316
632.262462	1.001292
632.608316	1.000723
632.954117	1.000274
633.299866	1.000403
633.645562	1.000803
633.991206	1.000641
634.336797	1.001534
634.682336	1.000816
635.027823	1.000649
635.373257	1.001435
635.718639	1.001231
636.063968	1.000013
636.409245	1.000216
636.754470	1.000074
637.099642	1.001217
637.444762	1.000965
637.789829	1.000394
638.134845	1.000324
638.479808	1.000805
638.824719	1.000320
639.169577	1.000056
639.514383	0.999758
639.859137	0.999746
640.203839	1.001503
640.548489	0.999696
640.893086	1.001195
641.237632	1.000771
641.582125	0.999980
641.926566	0.998859
642.270955	1.000687
642.615292	1.000919
642.959576	1.000275
643.303809	1.000829
643.647990	1.000531
643.992118	1.000959
644.336195	1.000624
644.680219	1.000471
645.024192	1.000516
645.368112	0.999001
645.711981	1.000255
646.055797	1.000149
646.399562	1.000035
646.743274	0.999080
647.086935	1.000642
647.430544	0.999653
647.774101	1.000471
648.117606	0.999645
648.461059	0.999822
648.804460	0.999838
649.147810	1.000089
649.491108	1.000449
649.834354	0.999967
650.177548	1.000516
650.520690	1.001322
650.863781	0.999988
651.206820	1.000255
651.549807	1.000041
651.892742	1.000372
652.235626	1.000551
652.578458	1.000548
652.921238	1.000384
653.263967	1.000972
653.606644	1.000851
653.949269	1.000619
654.291843	1.000015
654.634365	1.000028
654.976836	0.999973
655.319255	1.000089
655.661622	1.001375
656.003938	0.999890
656.346203	1.000846
656.688416	1.000474
657.030577	1.000990
657.372687	0.999610
657.714746	1.000142
658.056753	0.999860
658.398708	1.000315
658.740612	1.000935
659.082465	1.000268
659.424266	1.000362
659.766016	0.998873
660.107715	0.999593
660.449362	0.999586
660.790958	0.999699
661.132503	0.998373
661.473996	0.999903
661.815438	0.999594
662.156829	1.000474
662.498168	1.000546
662.839456	0.999155
663.180693	1.000926
663.521879	1.000079
663.863013	1.000715
664.204097	1.000338
664.545129	1.000760
664.886110	1.000535
665.227040	1.000562
665.567918	0.999265
665.908746	0.999778
666.249522	0.999241
666.590248	0.999708
666.930922	1.000933
667.271545	1.000648
667.612118	1.000303
667.952639	1.000778
668.293109	1.000191
668.633528	0.999907
668.973896	1.001044
669.314213	0.999400
669.654480	1.000593
669.994695	1.000351
670.334859	1.000328
670.674973	0.998927
671.015035	0.999476
671.355047	1.000317
671.695008	1.000314
672.034918	0.999061
672.374777	1.000709
672.714585	1.000204
673.054342	0.999915
673.394049	0.999764
673.733705	0.998316
674.073310	0.999985
674.412864	1.000307
674.752368	0.999796
675.091820	1.000588
675.431223	1.000104
675.770574	1.000174
676.109875	0.999932
676.449125	1.000045
676.788324	0.999703
677.127473	1.000964
677.466571	1.000243
677.805619	0.999911
678.144616	0.999434
678.483562	0.999516
678.822458	1.000171
679.161303	1.000724
679.500098	0.999990
679.838842	1.000789
680.177535	1.000583
680.516179	1.000465
680.854771	1.000245
681.193314	0.999400
681.531805	1.000707
681.870247	0.999001
682.208638	0.999921
682.546978	0.999394
682.885268	1.000137
683.223508	1.000000
683.561697	0.999603
683.899836	0.999755
684.237925	1.001000
684.575963	0.999710
684.913951	0.999943
685.251889	0.999516
685.589776	0.999646
685.927614	1.000384
686.265401	1.000292
686.603137	0.999734
686.940824	0.999281
687.278460	0.999952
687.616046	0.999453
687.953582	0.999216
688.291068	0.999234
688.628504	1.000847
