Dividing Wavelength (nm)	Counts (n)	Blue Motor Position (mm): 0.000000	Red Motor Position (mm): 49.700000	
326.493990	1.000957
326.888308	1.000957
327.282561	1.000957
327.676750	0.998944
328.070874	0.998464
328.464933	1.000315
328.858929	0.999432
329.252859	1.000200
329.646726	0.998990
330.040528	0.999956
330.434265	0.998392
330.827938	1.000012
331.221547	1.000636
331.615091	0.999512
332.008571	0.999615
332.401986	0.999094
332.795338	1.001088
333.188625	0.998873
333.581847	1.000903
333.975006	0.998668
334.368100	0.999082
334.761129	0.999241
335.154095	1.000172
335.546996	0.998831
335.939833	0.999972
336.332606	0.999534
336.725315	1.000310
337.117960	1.002129
337.510540	0.999933
337.903056	1.000874
338.295508	1.000225
338.687896	0.999629
339.080220	0.999383
339.472480	0.999871
339.864676	1.000658
340.256807	1.001054
340.648875	1.000760
341.040879	1.000547
341.432818	0.999515
341.824694	0.999252
342.216506	1.001204
342.608253	0.998457
342.999937	0.999720
343.391557	1.000028
343.783113	0.998935
344.174605	0.999859
344.566033	1.000214
344.957397	0.998819
345.348697	0.999271
345.739934	0.999888
346.131106	0.998850
346.522215	0.998943
346.913260	0.999480
347.304241	0.999885
347.695159	0.999703
348.086012	0.997574
348.476802	1.000207
348.867528	1.000259
349.258191	0.998844
349.648789	1.000927
350.039324	0.999111
350.429796	0.999345
350.820203	0.999836
351.210548	0.999754
351.600828	0.999349
351.991045	0.999277
352.381198	0.998120
352.771288	0.999659
353.161314	0.999326
353.551276	1.000480
353.941175	0.999253
354.331010	1.000063
354.720782	0.999731
355.110490	1.000661
355.500135	0.999350
355.889717	0.999372
356.279235	0.999818
356.668689	1.000130
357.058080	0.999263
357.447408	0.999539
357.836672	1.000457
358.225873	0.999961
358.615010	1.001060
359.004084	0.999397
359.393095	1.000292
359.782043	1.000201
360.170927	0.999955
360.559748	1.001338
360.948505	0.999734
361.337199	1.000043
361.725830	1.000806
362.114398	0.999031
362.502903	1.000344
362.891344	1.000101
363.279722	0.999577
363.668037	0.999498
364.056289	0.999699
364.444478	1.000348
364.832603	1.000887
365.220665	0.999426
365.608665	0.999945
365.996601	1.000058
366.384474	0.999160
366.772284	1.000263
367.160031	0.997608
367.547715	0.999322
367.935336	0.999645
368.322893	0.999826
368.710388	0.998118
369.097820	0.999542
369.485189	1.000182
369.872495	0.999292
370.259738	0.997915
370.646918	1.000070
371.034035	1.000753
371.421090	0.999349
371.808081	0.999713
372.195010	1.000312
372.581875	0.999509
372.968678	0.999751
373.355418	0.999300
373.742096	0.999066
374.128710	1.000352
374.515262	0.999071
374.901751	0.999190
375.288177	0.999555
375.674540	0.999809
376.060841	0.998858
376.447079	1.000382
376.833254	0.999787
377.219367	0.999053
377.605417	0.999432
377.991404	0.999976
378.377329	0.999953
378.763191	0.999407
379.148991	0.999959
379.534727	0.999801
379.920402	0.999570
380.306013	0.998635
380.691563	0.999882
381.077049	0.999222
381.462474	0.999437
381.847835	1.000384
382.233134	0.999920
382.618371	1.000489
383.003545	0.999851
383.388657	0.999167
383.773706	1.001014
384.158693	1.000006
384.543618	1.000146
384.928480	1.000823
385.313280	0.999650
385.698017	0.999909
386.082692	0.999524
386.467305	0.999448
386.851856	0.999641
387.236344	0.999172
387.620770	1.000123
388.005133	1.000440
388.389435	1.000984
388.773674	1.000873
389.157851	0.999963
389.541965	0.999792
389.926018	0.999511
390.310008	1.001363
390.693936	0.999619
391.077802	1.000381
391.461606	0.999877
391.845348	1.000419
392.229027	1.000661
392.612645	1.000791
392.996200	1.001668
393.379694	1.001001
393.763125	1.001410
394.146494	1.000817
394.529801	1.000121
394.913047	1.000809
395.296230	0.999940
395.679351	1.000448
396.062410	1.000715
396.445408	1.000680
396.828343	1.000153
397.211217	0.999834
397.594028	1.000734
397.976778	0.999894
398.359466	1.000719
398.742092	1.000022
399.124656	0.999001
399.507158	0.999794
399.889598	1.000275
400.271977	1.000666
400.654294	1.001430
401.036549	1.001916
401.418742	1.000823
401.800874	0.999866
402.182944	1.001017
402.564952	0.999419
402.946898	1.001156
403.328783	1.000944
403.710606	0.999876
404.092367	1.000072
404.474067	1.000911
404.855705	1.000546
405.237282	1.000763
405.618797	1.000057
406.000250	0.999587
406.381642	0.999998
406.762972	1.000091
407.144240	1.001415
407.525447	1.000779
407.906593	1.000741
408.287677	1.000987
408.668700	1.000657
409.049661	0.999824
409.430560	1.001070
409.811399	0.999585
410.192176	1.000474
410.572891	1.000365
410.953545	1.000188
411.334138	0.999293
411.714669	1.000734
412.095139	0.999520
412.475547	1.001015
412.855894	0.999945
413.236180	1.000581
413.616405	1.000627
413.996568	1.001361
414.376670	1.001099
414.756711	1.000581
415.136691	1.000173
415.516609	1.001304
415.896466	0.999843
416.276262	0.999166
416.655997	1.001438
417.035670	1.000692
417.415283	1.000434
417.794834	1.000852
418.174324	1.000016
418.553753	1.000397
418.933121	1.000133
419.312428	1.000289
419.691674	1.000791
420.070859	1.000182
420.449983	1.001113
420.829045	1.001038
421.208047	1.001894
421.586988	1.001110
421.965867	0.999604
422.344686	1.001313
422.723444	0.999891
423.102141	1.000675
423.480777	1.000548
423.859352	1.001485
424.237866	1.000238
424.616319	1.000067
424.994712	1.000937
425.373044	1.001154
425.751314	1.001377
426.129524	1.000927
426.507673	1.000663
426.885762	1.000951
427.263789	1.001456
427.641756	1.000454
428.019662	1.001433
428.397508	0.999765
428.775292	1.000515
429.153016	1.000937
429.530679	1.001011
429.908282	1.001543
430.285824	1.001122
430.663305	1.000065
431.040726	1.000079
431.418086	1.001459
431.795385	1.002083
432.172624	1.000239
432.549802	1.001073
432.926920	1.000352
433.303977	1.001447
433.680974	1.001575
434.057910	1.000790
434.434786	1.000436
434.811601	1.000258
435.188355	1.000020
435.565050	0.999457
435.941683	1.000725
436.318257	1.002105
436.694770	1.000219
437.071222	1.002018
437.447614	1.001138
437.823946	1.000839
438.200218	1.000867
438.576429	1.001303
438.952580	1.001346
439.328670	1.000618
439.704700	1.001099
440.080670	1.001462
440.456580	1.000576
440.832429	1.000352
441.208218	1.000700
441.583947	1.000493
441.959616	1.000572
442.335224	0.999927
442.710773	1.001538
443.086261	1.000472
443.461689	1.000148
443.837057	1.000874
444.212365	1.001121
444.587612	1.000827
444.962800	1.000068
445.337927	1.000831
445.712995	1.000558
446.088002	1.001355
446.462949	1.001149
446.837837	1.001280
447.212664	1.001783
447.587431	1.000497
447.962139	1.001079
448.336786	1.001050
448.711374	1.000420
449.085901	0.999847
449.460369	1.001427
449.834776	1.000721
450.209124	1.001392
450.583412	1.000848
450.957640	1.001043
451.331808	1.000923
451.705917	1.000978
452.079965	1.000584
452.453954	1.001316
452.827883	1.001330
453.201752	1.000998
453.575562	1.001102
453.949311	1.001291
454.323001	1.001120
454.696632	1.001060
455.070202	1.001074
455.443713	1.000748
455.817164	1.001137
456.190556	1.000869
456.563888	1.000796
456.937160	1.001098
457.310373	1.000278
457.683526	1.000832
458.056619	1.001228
458.429653	1.001342
458.802628	0.999961
459.175542	1.000136
459.548398	1.001111
459.921194	1.001325
460.293930	1.000632
460.666607	1.000948
461.039224	0.999931
461.411782	1.001203
461.784280	1.000189
462.156719	1.000869
462.529099	1.001394
462.901419	1.001253
463.273680	1.000128
463.645882	1.000958
464.018024	1.001093
464.390106	1.001721
464.762130	1.001838
465.134094	1.000823
465.505999	1.000997
465.877845	1.001381
466.249631	1.002193
466.621358	1.001140
466.993026	1.000958
467.364634	1.000913
467.736184	1.001234
468.107674	1.000495
468.479105	1.000161
468.850477	1.001904
469.221790	1.000691
469.593043	1.001306
469.964238	1.001568
470.335373	1.000522
470.706449	1.000891
471.077467	1.002026
471.448425	1.001032
471.819324	1.002192
472.190164	1.000561
472.560945	1.001098
472.931667	1.000420
473.302330	1.001058
473.672934	1.000771
474.043479	1.001622
474.413965	1.000969
474.784393	1.001228
475.154761	1.001030
475.525070	1.000401
475.895321	1.001606
476.265513	1.001625
476.635645	1.000881
477.005719	1.001479
477.375734	1.000356
477.745691	1.001556
478.115588	1.001293
478.485427	1.001482
478.855207	1.001028
479.224928	1.001029
479.594591	1.001437
479.964194	1.001158
480.333739	1.001414
480.703226	1.001437
481.072653	1.001628
481.442022	1.001368
481.811333	1.000570
482.180584	1.001668
482.549777	1.001388
482.918912	1.001039
483.287988	1.001505
483.657005	1.000518
484.025964	1.002408
484.394864	1.002275
484.763706	1.002237
485.132489	1.001176
485.501213	1.001454
485.869879	1.000572
486.238487	1.001122
486.607036	1.001642
486.975527	1.000643
487.343959	1.001386
487.712333	1.000695
488.080648	1.001337
488.448905	1.001386
488.817104	1.002339
489.185244	1.000875
489.553326	1.001346
489.921350	1.000462
490.289315	1.001666
490.657222	1.001229
491.025070	1.001143
491.392861	1.001704
491.760593	1.001396
492.128267	1.001847
492.495883	1.000929
492.863440	1.001528
493.230939	1.001391
493.598380	1.000871
493.965763	1.001018
494.333088	1.001652
494.700354	1.000936
495.067563	1.001344
495.434713	1.001755
495.801805	1.001670
496.168839	1.001885
496.535815	1.001208
496.902733	1.000883
497.269593	1.001138
497.636395	1.001702
498.003139	1.001809
498.369825	1.001709
498.736453	1.001199
499.103023	1.000625
499.469535	1.000368
499.835989	1.001407
500.202385	1.001320
500.568723	1.001569
500.935003	1.001397
501.301226	1.001419
501.667390	1.001075
502.033497	1.001432
502.399546	1.001750
502.765537	1.001014
503.131470	1.000985
503.497345	1.000854
503.863163	1.001994
504.228923	1.001387
504.594625	1.001058
504.960269	1.001772
505.325856	1.001223
505.691385	1.000853
506.056856	1.001157
506.422270	1.000911
506.787625	1.001394
507.152924	1.001874
507.518164	1.001159
507.883347	1.001580
508.248472	1.000879
508.613540	1.000839
508.978550	1.001793
509.343503	1.000908
509.708398	1.001440
510.073236	1.001119
510.438016	1.002059
510.802738	1.000939
511.167403	1.001503
511.532010	1.001412
511.896561	1.000460
512.261053	1.002164
512.625488	1.001275
512.989866	1.000954
513.354186	1.001121
513.718449	1.001086
514.082655	1.001175
514.446803	1.001176
514.810894	1.001605
515.174927	1.001437
515.538904	1.001191
515.902822	1.000975
516.266684	1.001887
516.630488	1.001943
516.994235	1.000401
517.357925	1.001102
517.721558	1.001293
518.085133	1.000633
518.448651	1.002186
518.812112	1.001389
519.175516	1.001252
519.538863	1.001659
519.902152	1.001265
520.265385	1.000886
520.628560	1.000545
520.991678	1.001783
521.354739	1.001366
521.717743	1.001083
522.080690	1.001615
522.443580	1.001130
522.806413	1.001295
523.169189	1.000964
523.531908	1.000588
523.894569	1.001379
524.257174	1.001459
524.619722	1.001854
524.982213	1.002088
525.344647	1.001976
525.707025	1.000946
526.069345	1.000995
526.431608	1.001313
526.793815	1.001544
527.155964	1.001327
527.518057	1.001419
527.880093	1.001121
528.242072	1.001494
528.603995	1.000697
528.965860	1.001946
529.327669	1.001051
529.689421	1.001171
530.051117	1.002287
530.412755	1.001173
530.774337	1.001651
531.135862	1.000950
531.497331	1.001364
531.858743	1.001204
532.220098	1.001454
532.581396	1.001059
532.942638	1.001524
533.303824	1.000814
533.664953	1.001664
534.026025	1.001054
534.387040	1.000851
534.747999	1.001241
535.108902	1.001398
535.469748	1.000904
535.830537	1.001340
536.191270	1.001240
536.551947	1.000997
536.912567	1.001771
537.273131	1.001886
537.633638	1.000725
537.994089	1.001278
538.354483	1.001905
538.714821	1.001379
539.075103	1.001329
539.435328	1.001266
539.795497	1.001530
540.155609	1.001267
540.515665	1.001224
540.875665	1.000707
541.235609	1.001233
541.595496	1.000781
541.955328	1.000191
542.315102	1.001287
542.674821	1.001540
543.034483	1.000630
543.394090	1.000840
543.753640	1.002054
544.113134	1.000881
544.472571	1.001220
544.831953	1.000689
545.191278	1.000619
545.550548	1.001105
545.909761	1.000662
546.268918	1.001237
546.628019	1.001411
546.987064	1.000695
547.346053	1.001197
547.704986	1.002018
548.063863	1.001355
548.422684	1.001033
548.781449	1.001346
549.140158	1.000861
549.498811	1.001297
549.857408	1.000982
550.215949	1.001688
550.574434	1.001070
550.932864	1.000757
551.291237	1.001908
551.649555	1.000834
552.007817	1.000547
552.366022	1.000824
552.724173	1.001218
553.082267	1.001233
553.440305	1.000175
553.798288	1.000719
554.156215	1.000747
554.514086	1.000849
554.871902	1.000884
555.229661	1.000838
555.587365	1.001600
555.945014	1.001509
556.302606	1.001022
556.660143	1.000971
557.017625	1.001676
557.375050	1.000862
557.732421	1.000581
558.089735	1.000795
558.446994	1.002132
558.804197	1.001430
559.161345	1.002013
559.518437	1.002523
559.875474	1.000565
560.232455	1.001099
560.589381	1.001193
560.946251	1.001042
561.303065	1.001422
561.659825	1.001761
562.016528	1.000357
562.373177	1.000867
562.729770	1.000856
563.086307	1.001587
563.442789	1.001513
563.799216	1.000621
564.155587	1.000034
564.511904	1.000102
564.868164	1.000201
565.224370	1.000988
565.580520	1.001302
565.936615	1.000402
566.292654	1.001270
566.648638	1.001644
567.004567	1.000477
567.360441	1.001765
567.716260	1.001835
568.072023	1.000980
568.427732	1.001098
568.783385	1.000918
569.138982	1.001171
569.494525	1.000770
569.850013	1.001242
570.205445	1.000795
570.560823	1.001063
570.916145	1.000403
571.271412	1.001158
571.626625	1.001130
571.981782	1.000711
572.336884	1.001825
572.691931	1.001450
573.046923	1.000721
573.401860	1.001484
573.756743	1.000870
574.111570	1.000956
574.466342	1.001020
574.821059	1.001472
575.175722	1.000560
575.530330	1.001073
575.884882	0.999926
576.239380	1.001512
576.593823	1.001482
576.948211	1.000569
577.302544	1.000825
577.656823	1.000793
578.011047	1.001024
578.365216	1.001093
578.719330	1.000940
579.073389	1.001349
579.427394	1.000704
579.781344	1.001018
580.135239	1.000821
580.489080	1.000679
580.842866	1.000683
581.196597	1.000850
581.550273	1.000622
581.903895	1.001063
582.257463	1.001267
582.610975	1.000564
582.964434	1.000971
583.317837	1.001650
583.671186	1.000747
584.024481	1.000557
584.377721	1.000904
584.730906	1.000897
585.084037	1.000649
585.437113	1.001051
585.790135	1.000495
586.143103	1.000639
586.496016	1.001706
586.848874	1.000949
587.201679	1.000848
587.554428	1.001215
587.907124	1.000251
588.259765	1.000916
588.612352	1.001471
588.964884	1.001446
589.317362	1.001290
589.669786	1.000562
590.022155	1.000475
590.374470	1.000458
590.726731	1.000922
591.078937	0.999968
591.431090	1.000611
591.783188	1.000485
592.135232	1.001010
592.487222	1.000893
592.839157	1.001068
593.191038	1.000864
593.542866	1.001222
593.894639	1.002414
594.246358	1.000354
594.598022	1.000698
594.949633	1.000987
595.301190	1.000356
595.652692	1.000514
596.004141	1.001194
596.355535	1.000455
596.706876	1.000329
597.058162	1.001160
597.409395	1.001172
597.760573	1.000671
598.111698	1.001144
598.462768	1.000336
598.813785	1.000759
599.164748	1.000645
599.515657	1.000315
599.866511	1.000887
600.217312	1.000275
600.568060	1.000542
600.918753	1.000339
601.269392	1.000412
601.619978	1.001320
601.970510	1.000607
602.320988	1.000870
602.671412	1.001249
603.021783	1.000896
603.372100	1.001396
603.722363	1.001019
604.072572	1.000738
604.422728	1.000477
604.772830	1.000624
605.122878	1.000587
605.472872	1.000664
605.822813	1.000249
606.172701	1.000434
606.522534	1.001466
606.872314	1.001324
607.222041	1.000439
607.571714	1.001200
607.921333	1.000598
608.270899	1.001043
608.620411	1.000211
608.969870	1.000766
609.319276	1.000392
609.668627	1.001654
610.017926	0.999576
610.367171	1.000508
610.716362	1.000266
611.065500	1.000853
611.414585	1.000150
611.763616	1.000995
612.112594	1.000385
612.461518	1.000110
612.810389	1.000773
613.159207	1.000862
613.507971	1.000417
613.856682	1.000606
614.205340	1.001222
614.553945	0.999633
614.902496	1.000286
615.250994	1.001323
615.599439	1.000899
615.947830	1.000242
616.296169	1.001271
616.644454	1.000849
616.992686	1.000693
617.340864	1.000661
617.688990	1.001026
618.037063	1.000594
618.385082	1.001401
618.733048	1.000260
619.080961	1.000862
619.428821	1.000962
619.776628	0.999892
620.124382	1.000864
620.472083	0.999940
620.819731	1.000926
621.167326	1.000807
621.514868	1.000845
621.862357	1.000907
622.209793	1.001730
622.557176	1.000079
622.904506	1.000227
623.251783	0.999709
623.599007	1.000691
623.946179	1.000501
624.293297	1.000168
624.640363	1.000371
624.987376	0.999626
625.334336	1.001087
625.681243	1.000462
626.028097	1.000218
626.374899	1.000610
626.721647	1.000769
627.068343	1.000792
627.414987	1.000590
627.761577	1.000897
628.108115	1.000888
628.454600	1.001213
628.801032	1.000212
629.147412	1.001064
629.493739	1.000088
629.840014	0.999454
630.186236	1.000737
630.532405	1.000337
630.878521	1.000742
631.224585	1.000471
631.570597	1.000661
631.916556	1.000377
632.262462	1.000793
632.608316	1.000805
632.954117	1.000248
633.299866	1.000218
633.645562	1.000166
633.991206	1.000431
634.336797	1.001331
634.682336	1.000491
635.027823	1.000440
635.373257	1.000989
635.718639	1.000822
636.063968	1.000129
636.409245	1.000101
636.754470	1.000288
637.099642	1.000267
637.444762	1.000367
637.789829	1.000348
638.134845	1.000568
638.479808	1.000224
638.824719	1.000700
639.169577	0.999795
639.514383	0.999941
639.859137	0.999862
640.203839	1.000778
640.548489	0.999735
640.893086	1.001296
641.237632	1.000756
641.582125	0.999966
641.926566	0.999745
642.270955	1.000029
642.615292	1.001071
642.959576	1.000752
643.303809	1.000831
643.647990	0.999709
643.992118	1.000348
644.336195	1.000586
644.680219	1.000683
645.024192	1.000680
645.368112	0.999610
645.711981	1.000829
646.055797	1.000600
646.399562	1.000124
646.743274	0.999320
647.086935	1.000930
647.430544	1.000606
647.774101	1.000059
648.117606	1.000346
648.461059	0.999957
648.804460	1.000606
649.147810	0.999603
649.491108	1.000942
649.834354	1.000074
650.177548	1.000624
650.520690	1.000619
650.863781	1.000588
651.206820	1.000434
651.549807	1.000578
651.892742	1.001055
652.235626	0.999924
652.578458	0.999940
652.921238	0.999773
653.263967	1.000592
653.606644	1.000644
653.949269	1.000451
654.291843	1.000011
654.634365	0.999679
654.976836	1.000745
655.319255	1.000125
655.661622	1.000880
656.003938	0.999925
656.346203	1.000788
656.688416	1.000854
657.030577	1.000396
657.372687	0.999610
657.714746	0.999458
658.056753	0.999981
658.398708	1.000874
658.740612	1.000445
659.082465	1.000480
659.424266	1.000677
659.766016	0.999226
660.107715	1.000387
660.449362	0.999573
660.790958	1.000666
661.132503	0.998877
661.473996	0.999913
661.815438	0.999705
662.156829	1.000219
662.498168	1.000490
662.839456	0.999603
663.180693	1.000949
663.521879	1.000259
663.863013	1.000561
664.204097	1.001526
664.545129	1.000425
664.886110	1.000437
665.227040	0.999413
665.567918	0.999705
665.908746	1.000580
666.249522	0.999650
666.590248	0.999886
666.930922	1.000962
667.271545	0.999880
667.612118	1.000932
667.952639	0.999415
668.293109	1.000096
668.633528	1.000268
668.973896	1.000263
669.314213	0.999942
669.654480	1.000869
669.994695	1.000175
670.334859	1.000034
670.674973	0.999765
671.015035	1.000327
671.355047	0.999452
671.695008	1.000528
672.034918	0.999585
672.374777	1.000195
672.714585	0.999771
673.054342	1.000546
673.394049	0.998927
673.733705	0.999169
674.073310	0.999621
674.412864	0.999770
674.752368	0.999757
675.091820	1.000348
675.431223	1.000432
675.770574	1.000171
676.109875	0.999920
676.449125	0.999823
676.788324	1.000131
677.127473	1.001970
677.466571	0.999402
677.805619	0.999545
678.144616	0.999728
678.483562	0.999761
678.822458	0.999838
679.161303	1.000477
679.500098	1.000732
679.838842	1.000947
680.177535	1.001259
680.516179	1.000275
680.854771	0.999156
681.193314	1.000269
681.531805	0.999751
681.870247	0.999459
682.208638	1.000054
682.546978	0.999385
682.885268	1.000204
683.223508	1.000316
683.561697	0.998768
683.899836	1.000640
684.237925	1.000580
684.575963	0.999407
684.913951	0.999493
685.251889	1.000073
685.589776	0.999493
685.927614	0.999215
686.265401	0.999982
686.603137	1.000039
686.940824	0.999673
687.278460	0.999692
687.616046	0.999785
687.953582	0.999524
688.291068	0.999603
688.628504	1.000175
