Dividing Wavelength (nm)	Counts (n)	Blue Motor Position (mm): 0.000000	Red Motor Position (mm): 47.800000	
326.493990	0.999461
326.888308	0.999461
327.282561	0.999461
327.676750	0.999453
328.070874	0.999046
328.464933	1.001169
328.858929	0.999259
329.252859	1.000366
329.646726	0.999687
330.040528	1.000121
330.434265	0.998322
330.827938	1.000495
331.221547	0.999926
331.615091	1.000573
332.008571	1.000705
332.401986	1.000385
332.795338	1.000918
333.188625	0.999537
333.581847	0.999782
333.975006	0.999757
334.368100	0.999631
334.761129	1.000895
335.154095	1.001183
335.546996	1.000809
335.939833	0.998569
336.332606	1.000275
336.725315	1.000554
337.117960	1.002145
337.510540	1.000457
337.903056	1.000226
338.295508	1.000762
338.687896	1.000105
339.080220	1.000936
339.472480	1.000847
339.864676	0.999396
340.256807	0.999807
340.648875	1.003084
341.040879	1.000716
341.432818	0.999492
341.824694	1.000853
342.216506	1.001379
342.608253	1.001090
342.999937	0.999276
343.391557	0.999568
343.783113	0.999428
344.174605	1.000704
344.566033	1.001510
344.957397	0.999451
345.348697	0.999358
345.739934	0.999484
346.131106	0.999744
346.522215	0.999940
346.913260	0.999452
347.304241	1.000584
347.695159	1.000785
348.086012	0.999268
348.476802	1.000582
348.867528	1.001204
349.258191	0.999161
349.648789	0.999948
350.039324	0.998807
350.429796	1.000146
350.820203	0.999767
351.210548	1.000155
351.600828	1.001431
351.991045	1.000455
352.381198	0.998920
352.771288	0.999611
353.161314	0.999473
353.551276	1.001988
353.941175	1.000439
354.331010	0.998713
354.720782	1.000996
355.110490	0.998894
355.500135	1.000522
355.889717	0.999629
356.279235	1.000466
356.668689	0.998876
357.058080	1.000711
357.447408	1.001891
357.836672	1.000678
358.225873	1.000700
358.615010	1.001282
359.004084	1.001001
359.393095	1.001848
359.782043	1.000534
360.170927	1.001935
360.559748	1.000437
360.948505	1.000460
361.337199	1.000842
361.725830	0.999568
362.114398	1.001244
362.502903	1.000978
362.891344	1.001881
363.279722	1.000044
363.668037	1.000295
364.056289	1.001094
364.444478	1.000249
364.832603	1.001483
365.220665	1.000729
365.608665	0.999866
365.996601	1.000061
366.384474	0.999789
366.772284	0.999027
367.160031	0.999784
367.547715	1.000139
367.935336	0.999284
368.322893	0.999955
368.710388	0.999474
369.097820	1.000447
369.485189	0.999617
369.872495	0.999423
370.259738	0.999007
370.646918	1.000588
371.034035	1.000810
371.421090	1.001082
371.808081	1.000364
372.195010	0.999935
372.581875	1.000183
372.968678	1.000726
373.355418	0.999826
373.742096	0.998582
374.128710	1.000467
374.515262	0.998834
374.901751	1.001199
375.288177	1.000443
375.674540	1.000569
376.060841	1.000263
376.447079	1.000675
376.833254	0.999100
377.219367	1.000528
377.605417	0.999821
377.991404	0.999527
378.377329	0.999106
378.763191	1.000196
379.148991	1.001004
379.534727	0.999527
379.920402	1.000585
380.306013	1.000455
380.691563	1.000345
381.077049	0.999449
381.462474	1.000511
381.847835	1.000092
382.233134	0.999718
382.618371	0.999826
383.003545	0.999945
383.388657	0.999507
383.773706	1.000790
384.158693	1.000108
384.543618	0.999452
384.928480	1.001334
385.313280	1.000712
385.698017	1.001156
386.082692	1.000433
386.467305	1.000523
386.851856	0.999845
387.236344	0.999559
387.620770	0.998597
388.005133	1.000714
388.389435	1.000561
388.773674	1.000354
389.157851	1.000642
389.541965	1.000633
389.926018	0.999682
390.310008	1.001186
390.693936	1.000429
391.077802	0.999836
391.461606	0.999904
391.845348	1.000253
392.229027	1.000831
392.612645	1.000618
392.996200	1.001756
393.379694	1.000577
393.763125	1.001115
394.146494	1.000404
394.529801	0.999605
394.913047	1.000299
395.296230	0.999841
395.679351	1.000431
396.062410	0.999972
396.445408	1.000541
396.828343	1.000566
397.211217	0.999591
397.594028	1.000570
397.976778	0.999828
398.359466	0.999295
398.742092	0.999467
399.124656	1.000130
399.507158	1.000453
399.889598	0.999964
400.271977	1.000408
400.654294	1.000095
401.036549	1.000363
401.418742	1.001278
401.800874	0.999583
402.182944	1.000182
402.564952	0.999624
402.946898	1.000464
403.328783	1.000410
403.710606	0.999631
404.092367	0.999870
404.474067	1.000911
404.855705	1.000871
405.237282	1.000162
405.618797	1.000180
406.000250	0.999777
406.381642	1.000976
406.762972	1.000086
407.144240	1.000977
407.525447	1.000904
407.906593	1.000404
408.287677	1.000785
408.668700	1.000840
409.049661	1.000229
409.430560	1.000731
409.811399	1.000343
410.192176	1.000259
410.572891	1.000208
410.953545	0.999877
411.334138	0.999100
411.714669	1.000548
412.095139	0.999505
412.475547	1.000576
412.855894	1.001091
413.236180	1.000894
413.616405	1.000091
413.996568	1.001336
414.376670	0.999889
414.756711	0.999637
415.136691	1.000419
415.516609	1.000336
415.896466	1.000743
416.276262	0.999493
416.655997	1.001136
417.035670	1.000195
417.415283	1.000688
417.794834	1.000395
418.174324	1.000273
418.553753	1.001258
418.933121	0.999680
419.312428	1.000191
419.691674	0.999995
420.070859	1.000709
420.449983	1.000690
420.829045	1.000116
421.208047	1.001312
421.586988	1.001461
421.965867	0.999729
422.344686	1.001470
422.723444	1.000463
423.102141	1.000401
423.480777	0.999896
423.859352	1.000325
424.237866	1.000316
424.616319	1.000769
424.994712	1.000291
425.373044	1.001009
425.751314	1.000513
426.129524	0.999562
426.507673	1.000560
426.885762	1.001663
427.263789	1.000312
427.641756	1.000701
428.019662	1.001563
428.397508	0.999472
428.775292	0.999348
429.153016	1.000574
429.530679	1.001564
429.908282	1.000935
430.285824	1.000081
430.663305	1.000141
431.040726	0.999999
431.418086	1.001987
431.795385	1.002123
432.172624	1.000386
432.549802	1.000707
432.926920	1.000423
433.303977	1.000311
433.680974	1.000709
434.057910	1.000358
434.434786	1.000906
434.811601	1.000778
435.188355	0.999855
435.565050	1.000035
435.941683	1.000669
436.318257	1.001302
436.694770	0.999933
437.071222	1.001122
437.447614	0.999689
437.823946	0.999682
438.200218	1.000304
438.576429	1.000946
438.952580	1.000949
439.328670	1.000333
439.704700	0.999957
440.080670	1.001156
440.456580	1.000878
440.832429	0.999620
441.208218	1.001089
441.583947	1.000445
441.959616	1.000024
442.335224	1.000746
442.710773	1.000960
443.086261	1.000666
443.461689	0.999868
443.837057	1.000548
444.212365	1.000680
444.587612	1.000728
444.962800	1.000063
445.337927	1.000544
445.712995	1.001416
446.088002	1.000711
446.462949	1.001114
446.837837	1.000444
447.212664	1.001316
447.587431	1.000050
447.962139	0.999702
448.336786	1.000641
448.711374	1.000546
449.085901	1.000585
449.460369	1.001356
449.834776	0.999621
450.209124	1.000519
450.583412	1.001058
450.957640	1.000564
451.331808	1.000784
451.705917	1.000230
452.079965	1.000936
452.453954	1.001020
452.827883	1.000426
453.201752	1.000907
453.575562	1.000248
453.949311	1.001188
454.323001	1.000543
454.696632	1.000710
455.070202	1.000172
455.443713	0.999901
455.817164	1.000793
456.190556	1.000226
456.563888	1.000450
456.937160	1.000750
457.310373	1.000645
457.683526	0.999914
458.056619	1.000677
458.429653	1.000800
458.802628	0.999542
459.175542	0.999392
459.548398	1.000807
459.921194	1.000472
460.293930	1.000400
460.666607	1.000329
461.039224	0.999475
461.411782	1.000990
461.784280	0.999502
462.156719	1.001304
462.529099	1.001042
462.901419	1.000512
463.273680	0.999826
463.645882	1.000549
464.018024	1.000285
464.390106	1.000738
464.762130	1.000845
465.134094	1.000415
465.505999	1.000957
465.877845	1.000676
466.249631	1.000927
466.621358	1.000599
466.993026	1.000743
467.364634	1.000306
467.736184	1.000677
468.107674	1.000335
468.479105	1.000397
468.850477	1.000763
469.221790	1.000402
469.593043	1.000731
469.964238	1.001496
470.335373	0.999831
470.706449	1.000068
471.077467	1.000848
471.448425	1.000121
471.819324	1.000794
472.190164	1.000335
472.560945	1.000781
472.931667	1.000271
473.302330	1.000383
473.672934	1.001196
474.043479	1.000551
474.413965	1.000513
474.784393	1.000151
475.154761	1.001294
475.525070	1.000537
475.895321	1.001155
476.265513	1.000388
476.635645	1.000555
477.005719	1.001146
477.375734	1.000248
477.745691	1.000800
478.115588	1.001037
478.485427	1.000657
478.855207	1.000381
479.224928	1.001390
479.594591	1.000955
479.964194	1.000666
480.333739	1.000911
480.703226	1.000403
481.072653	1.000852
481.442022	1.001605
481.811333	1.000494
482.180584	1.001401
482.549777	1.000751
482.918912	1.000618
483.287988	1.000682
483.657005	1.000841
484.025964	1.001224
484.394864	1.000929
484.763706	1.000864
485.132489	1.000548
485.501213	1.001256
485.869879	1.000827
486.238487	1.000832
486.607036	1.001750
486.975527	1.000220
487.343959	1.000713
487.712333	1.001057
488.080648	1.000595
488.448905	1.001026
488.817104	1.000909
489.185244	1.000560
489.553326	1.000204
489.921350	1.000919
490.289315	1.000534
490.657222	1.001067
491.025070	1.001201
491.392861	1.001033
491.760593	1.000975
492.128267	1.000346
492.495883	0.999888
492.863440	1.000961
493.230939	1.000670
493.598380	1.000779
493.965763	1.000721
494.333088	1.000802
494.700354	1.000146
495.067563	1.000521
495.434713	1.000335
495.801805	1.001549
496.168839	1.001107
496.535815	1.000537
496.902733	1.000331
497.269593	1.000191
497.636395	1.000874
498.003139	1.000661
498.369825	1.001078
498.736453	1.000854
499.103023	1.000013
499.469535	1.000266
499.835989	1.000549
500.202385	1.000707
500.568723	1.000763
500.935003	1.000902
501.301226	1.000823
501.667390	1.000280
502.033497	1.000667
502.399546	1.001228
502.765537	0.999763
503.131470	1.000058
503.497345	1.000537
503.863163	1.001167
504.228923	1.000533
504.594625	1.001158
504.960269	1.000932
505.325856	1.000803
505.691385	1.000644
506.056856	1.000149
506.422270	1.000662
506.787625	1.000369
507.152924	1.000786
507.518164	1.000505
507.883347	1.000545
508.248472	1.000458
508.613540	1.000628
508.978550	1.000846
509.343503	1.000411
509.708398	1.000829
510.073236	1.001453
510.438016	1.000525
510.802738	1.000526
511.167403	1.000152
511.532010	1.001080
511.896561	1.000268
512.261053	1.001209
512.625488	1.000169
512.989866	1.001027
513.354186	1.000327
513.718449	1.000580
514.082655	1.000631
514.446803	1.000478
514.810894	1.001019
515.174927	1.000820
515.538904	1.000051
515.902822	1.000500
516.266684	1.000487
516.630488	1.000941
516.994235	0.999856
517.357925	1.000741
517.721558	1.000626
518.085133	1.000192
518.448651	1.001721
518.812112	1.000651
519.175516	1.000300
519.538863	1.001245
519.902152	0.999905
520.265385	0.999951
520.628560	1.000495
520.991678	1.000249
521.354739	1.000788
521.717743	1.001180
522.080690	1.001208
522.443580	1.000005
522.806413	1.000378
523.169189	1.000630
523.531908	0.999415
523.894569	1.000615
524.257174	1.000109
524.619722	1.000604
524.982213	1.000185
525.344647	1.000597
525.707025	1.000227
526.069345	0.999697
526.431608	1.000281
526.793815	1.001075
527.155964	1.000681
527.518057	1.000969
527.880093	1.000985
528.242072	1.000923
528.603995	0.999897
528.965860	1.000880
529.327669	1.000551
529.689421	1.000244
530.051117	1.001155
530.412755	1.000655
530.774337	1.001315
531.135862	1.000815
531.497331	1.000997
531.858743	1.000693
532.220098	1.000807
532.581396	1.000879
532.942638	1.001559
533.303824	1.000726
533.664953	1.000825
534.026025	0.999889
534.387040	1.000654
534.747999	1.001004
535.108902	1.001196
535.469748	1.000543
535.830537	1.000455
536.191270	1.000350
536.551947	1.000444
536.912567	1.000801
537.273131	1.001255
537.633638	1.000296
537.994089	1.001007
538.354483	1.000497
538.714821	1.000997
539.075103	1.000377
539.435328	1.000697
539.795497	1.000839
540.155609	1.000257
540.515665	1.000381
540.875665	1.000431
541.235609	1.000865
541.595496	1.000560
541.955328	1.000075
542.315102	1.000567
542.674821	1.000371
543.034483	1.000231
543.394090	1.000185
543.753640	1.001213
544.113134	1.000463
544.472571	1.001238
544.831953	1.000546
545.191278	1.000469
545.550548	1.001272
545.909761	0.999612
546.268918	1.000545
546.628019	1.000696
546.987064	1.000455
547.346053	1.000760
547.704986	1.001084
548.063863	1.000794
548.422684	1.001044
548.781449	1.001181
549.140158	1.000476
549.498811	1.000628
549.857408	1.000666
550.215949	1.000550
550.574434	1.000719
550.932864	0.999647
551.291237	1.001080
551.649555	1.000360
552.007817	1.000787
552.366022	1.000899
552.724173	1.001202
553.082267	1.000855
553.440305	1.000608
553.798288	1.000407
554.156215	1.000427
554.514086	1.000496
554.871902	1.000152
555.229661	1.000950
555.587365	1.001066
555.945014	1.000716
556.302606	1.000099
556.660143	1.000340
557.017625	1.000174
557.375050	1.000196
557.732421	1.000745
558.089735	1.000869
558.446994	1.001505
558.804197	1.001294
559.161345	1.000828
559.518437	1.001026
559.875474	1.000323
560.232455	1.000687
560.589381	1.000690
560.946251	1.000762
561.303065	1.000687
561.659825	1.000611
562.016528	1.000287
562.373177	1.001212
562.729770	1.000911
563.086307	1.000699
563.442789	1.000318
563.799216	1.000779
564.155587	1.000214
564.511904	1.000030
564.868164	1.000392
565.224370	1.000722
565.580520	1.000444
565.936615	1.000343
566.292654	1.000552
566.648638	1.000688
567.004567	1.000410
567.360441	1.000340
567.716260	1.001342
568.072023	1.000773
568.427732	1.000772
568.783385	1.000927
569.138982	1.001156
569.494525	1.000644
569.850013	1.000011
570.205445	1.000219
570.560823	1.000642
570.916145	0.999895
571.271412	1.000941
571.626625	1.000078
571.981782	1.000471
572.336884	1.001329
572.691931	1.000723
573.046923	1.000008
573.401860	1.000644
573.756743	1.000847
574.111570	1.000595
574.466342	1.001261
574.821059	1.001193
575.175722	1.000868
575.530330	1.001013
575.884882	1.000431
576.239380	1.001256
576.593823	1.000891
576.948211	1.000787
577.302544	1.000245
577.656823	1.000692
578.011047	1.000432
578.365216	1.000818
578.719330	0.999893
579.073389	1.000773
579.427394	1.000458
579.781344	1.000558
580.135239	1.001139
580.489080	1.000756
580.842866	1.000819
581.196597	1.000242
581.550273	0.999687
581.903895	1.000782
582.257463	1.000941
582.610975	1.000750
582.964434	1.000049
583.317837	1.001415
583.671186	1.000421
584.024481	1.000462
584.377721	1.000783
584.730906	1.001089
585.084037	1.000510
585.437113	1.001048
585.790135	1.000722
586.143103	1.000429
586.496016	1.000471
586.848874	1.000277
587.201679	1.000250
587.554428	1.000379
587.907124	1.000403
588.259765	1.000300
588.612352	1.001495
588.964884	1.001403
589.317362	1.002386
589.669786	1.001219
590.022155	1.001172
590.374470	1.000752
590.726731	0.999911
591.078937	0.999596
591.431090	0.999548
591.783188	1.000588
592.135232	1.001131
592.487222	1.000967
592.839157	1.000231
593.191038	1.000747
593.542866	1.000011
593.894639	1.000593
594.246358	0.999598
594.598022	1.000084
594.949633	1.001113
595.301190	0.999917
595.652692	1.000691
596.004141	1.000717
596.355535	1.000366
596.706876	1.000893
597.058162	1.000809
597.409395	1.000552
597.760573	0.999870
598.111698	0.999782
598.462768	0.999902
598.813785	0.999486
599.164748	1.000593
599.515657	0.999858
599.866511	0.999637
600.217312	0.999359
600.568060	1.001057
600.918753	1.000405
601.269392	1.000245
601.619978	1.000624
601.970510	1.000020
602.320988	1.000820
602.671412	0.999873
603.021783	1.000596
603.372100	1.002036
603.722363	1.000928
604.072572	0.999883
604.422728	1.001084
604.772830	1.000072
605.122878	1.000310
605.472872	1.000123
605.822813	1.000034
606.172701	1.000130
606.522534	1.001251
606.872314	1.001029
607.222041	0.999792
607.571714	1.000624
607.921333	1.000513
608.270899	1.000367
608.620411	1.000750
608.969870	1.000832
609.319276	0.999228
609.668627	1.000764
610.017926	1.000026
610.367171	1.000081
610.716362	1.000040
611.065500	0.999811
611.414585	0.999675
611.763616	1.000763
612.112594	1.000483
612.461518	1.000152
612.810389	1.000246
613.159207	1.000549
613.507971	1.000047
613.856682	1.001163
614.205340	1.000941
614.553945	0.999605
614.902496	0.999968
615.250994	1.001243
615.599439	1.000976
615.947830	0.999715
616.296169	1.000586
616.644454	1.000580
616.992686	1.001075
617.340864	1.000223
617.688990	1.000036
618.037063	1.001030
618.385082	1.000901
618.733048	1.000398
619.080961	1.001276
619.428821	1.001191
619.776628	0.999935
620.124382	0.999982
620.472083	0.999562
620.819731	1.000898
621.167326	1.000114
621.514868	1.000803
621.862357	1.000369
622.209793	1.001097
622.557176	0.999784
622.904506	1.000166
623.251783	0.999590
623.599007	1.000256
623.946179	1.000598
624.293297	0.999447
624.640363	1.000687
624.987376	0.998834
625.334336	1.000000
625.681243	1.000768
626.028097	1.000218
626.374899	1.000309
626.721647	1.000349
627.068343	1.000456
627.414987	1.000377
627.761577	1.000191
628.108115	1.000557
628.454600	1.000775
628.801032	0.999651
629.147412	1.000356
629.493739	0.999793
629.840014	1.000180
630.186236	1.000531
630.532405	1.000092
630.878521	0.999523
631.224585	1.000186
631.570597	0.999953
631.916556	1.000203
632.262462	1.000266
632.608316	1.000162
632.954117	1.000550
633.299866	1.000650
633.645562	1.000731
633.991206	1.000657
634.336797	1.001374
634.682336	1.000331
635.027823	1.000574
635.373257	1.001153
635.718639	1.000402
636.063968	1.000531
636.409245	0.999836
636.754470	1.000458
637.099642	1.000463
637.444762	1.000629
637.789829	0.999984
638.134845	1.000230
638.479808	0.999945
638.824719	1.000842
639.169577	0.999745
639.514383	1.000733
639.859137	0.999874
640.203839	0.999998
640.548489	0.999865
640.893086	1.001017
641.237632	1.000025
641.582125	0.999614
641.926566	0.999477
642.270955	1.000209
642.615292	1.000182
642.959576	1.000868
643.303809	1.000567
643.647990	0.999674
643.992118	1.000445
644.336195	1.000606
644.680219	0.999186
645.024192	1.001345
645.368112	0.999739
645.711981	1.000576
646.055797	0.999675
646.399562	1.000286
646.743274	0.999451
647.086935	1.000426
647.430544	1.000300
647.774101	1.000176
648.117606	1.000596
648.461059	1.000106
648.804460	0.999818
649.147810	0.999733
649.491108	1.000605
649.834354	1.000326
650.177548	1.000595
650.520690	1.000170
650.863781	0.999642
651.206820	1.000466
651.549807	1.000697
651.892742	1.000222
652.235626	0.999862
652.578458	0.999839
652.921238	0.999567
653.263967	1.001010
653.606644	1.000345
653.949269	1.000226
654.291843	1.000365
654.634365	0.999327
654.976836	1.000315
655.319255	0.999430
655.661622	1.000385
656.003938	1.000204
656.346203	1.000648
656.688416	1.001176
657.030577	1.000444
657.372687	1.000321
657.714746	1.000206
658.056753	1.000180
658.398708	1.000812
658.740612	1.000481
659.082465	1.000184
659.424266	1.000742
659.766016	0.999510
660.107715	0.999304
660.449362	1.000209
660.790958	1.000085
661.132503	0.998657
661.473996	1.000466
661.815438	0.999712
662.156829	0.999841
662.498168	1.000875
662.839456	0.999867
663.180693	1.000184
663.521879	1.000375
663.863013	1.000631
664.204097	1.000163
664.545129	1.000760
664.886110	0.999481
665.227040	1.000358
665.567918	0.999982
665.908746	1.000043
666.249522	0.999594
666.590248	1.000137
666.930922	1.000665
667.271545	0.999986
667.612118	1.000256
667.952639	1.000829
668.293109	0.999821
668.633528	1.001127
668.973896	1.000495
669.314213	1.000275
669.654480	1.001076
669.994695	1.000038
670.334859	0.999956
670.674973	0.999405
671.015035	1.000677
671.355047	1.000070
671.695008	1.000045
672.034918	0.999834
672.374777	0.999827
672.714585	1.000094
673.054342	1.000480
673.394049	0.999232
673.733705	0.999117
674.073310	1.000194
674.412864	1.000370
674.752368	1.000609
675.091820	1.001034
675.431223	0.999437
675.770574	1.000046
676.109875	0.999691
676.449125	1.000373
676.788324	0.999306
677.127473	1.000955
677.466571	1.000073
677.805619	0.999481
678.144616	1.000116
678.483562	0.999508
678.822458	0.999333
679.161303	1.000141
679.500098	1.000543
679.838842	1.000824
680.177535	1.000892
680.516179	1.000491
680.854771	1.000117
681.193314	0.999843
681.531805	0.999963
681.870247	0.999169
682.208638	1.000032
682.546978	0.999678
682.885268	1.000058
683.223508	1.000236
683.561697	0.999639
683.899836	1.000113
684.237925	1.000544
684.575963	0.999762
684.913951	0.999879
685.251889	1.000887
685.589776	1.000675
685.927614	1.000528
686.265401	1.000755
686.603137	0.999508
686.940824	0.999734
687.278460	0.999975
687.616046	1.000043
687.953582	0.999801
688.291068	1.000118
688.628504	1.000309
