Dividing Wavelength (nm)	Counts (n)	Blue Motor Position (mm): 0.000000	Red Motor Position (mm): 48.600000	
326.493990	1.000818
326.888308	1.000818
327.282561	1.000818
327.676750	1.000748
328.070874	0.998916
328.464933	1.000414
328.858929	0.999503
329.252859	0.999114
329.646726	0.999664
330.040528	1.000964
330.434265	0.999194
330.827938	1.000815
331.221547	1.001454
331.615091	0.999454
332.008571	0.999663
332.401986	0.999503
332.795338	1.000376
333.188625	0.998472
333.581847	1.000577
333.975006	1.000312
334.368100	1.000213
334.761129	1.000027
335.154095	1.002057
335.546996	0.999910
335.939833	1.000044
336.332606	1.000473
336.725315	1.002067
337.117960	1.000323
337.510540	1.000213
337.903056	1.001359
338.295508	0.999053
338.687896	1.001045
339.080220	1.000834
339.472480	1.001138
339.864676	1.000630
340.256807	1.000734
340.648875	1.001585
341.040879	1.000183
341.432818	1.001149
341.824694	1.000335
342.216506	1.001317
342.608253	1.000809
342.999937	0.999886
343.391557	1.000068
343.783113	0.999893
344.174605	1.001108
344.566033	1.001358
344.957397	0.999959
345.348697	0.998826
345.739934	1.000223
346.131106	0.999521
346.522215	1.000031
346.913260	0.999661
347.304241	1.000623
347.695159	0.999815
348.086012	0.999972
348.476802	0.999641
348.867528	1.001075
349.258191	0.999336
349.648789	1.000407
350.039324	0.999242
350.429796	1.000558
350.820203	1.000854
351.210548	1.000238
351.600828	1.000841
351.991045	0.999921
352.381198	0.999321
352.771288	0.999798
353.161314	0.999765
353.551276	1.001451
353.941175	1.000578
354.331010	0.999847
354.720782	1.001024
355.110490	1.000034
355.500135	1.000904
355.889717	0.998920
356.279235	1.000187
356.668689	0.999623
357.058080	1.000502
357.447408	1.001935
357.836672	1.000672
358.225873	1.001160
358.615010	1.000380
359.004084	1.002205
359.393095	1.001072
359.782043	1.000199
360.170927	1.000621
360.559748	1.001071
360.948505	0.999359
361.337199	1.000533
361.725830	1.001420
362.114398	1.000236
362.502903	1.000587
362.891344	1.000991
363.279722	1.000867
363.668037	1.001290
364.056289	1.000811
364.444478	1.001548
364.832603	1.000638
365.220665	1.000176
365.608665	1.000145
365.996601	1.000008
366.384474	1.000190
366.772284	1.000871
367.160031	0.999172
367.547715	0.999232
367.935336	1.000260
368.322893	0.999981
368.710388	0.999419
369.097820	1.000919
369.485189	0.999644
369.872495	1.000888
370.259738	0.998866
370.646918	1.000122
371.034035	1.001143
371.421090	1.000505
371.808081	0.999761
372.195010	1.001056
372.581875	1.001136
372.968678	1.000260
373.355418	1.000485
373.742096	0.999296
374.128710	1.000713
374.515262	1.000216
374.901751	1.000356
375.288177	0.998996
375.674540	1.001029
376.060841	1.000320
376.447079	0.999935
376.833254	0.999654
377.219367	1.000639
377.605417	1.000329
377.991404	1.000109
378.377329	0.999795
378.763191	1.000285
379.148991	1.001278
379.534727	1.001464
379.920402	0.999997
380.306013	1.000139
380.691563	1.001708
381.077049	1.000664
381.462474	1.000261
381.847835	1.000690
382.233134	0.999205
382.618371	1.000174
383.003545	1.000304
383.388657	1.000468
383.773706	1.000842
384.158693	1.000396
384.543618	1.000982
384.928480	1.002166
385.313280	1.000128
385.698017	1.001528
386.082692	1.001412
386.467305	1.001102
386.851856	1.001372
387.236344	1.000757
387.620770	0.999439
388.005133	1.001190
388.389435	1.000901
388.773674	1.000876
389.157851	1.001145
389.541965	1.001404
389.926018	0.999941
390.310008	1.001615
390.693936	1.001101
391.077802	1.000698
391.461606	1.000310
391.845348	1.000923
392.229027	1.001728
392.612645	1.000434
392.996200	1.002265
393.379694	1.000828
393.763125	1.001226
394.146494	1.001202
394.529801	1.000444
394.913047	1.001759
395.296230	1.001552
395.679351	1.000993
396.062410	1.000410
396.445408	1.001486
396.828343	1.000588
397.211217	1.000179
397.594028	1.001895
397.976778	1.000653
398.359466	1.000596
398.742092	1.000040
399.124656	1.000284
399.507158	1.000949
399.889598	1.001746
400.271977	1.001353
400.654294	1.001882
401.036549	1.001157
401.418742	1.001112
401.800874	1.001219
402.182944	1.001605
402.564952	1.000013
402.946898	1.002379
403.328783	1.002021
403.710606	1.000787
404.092367	1.001603
404.474067	1.001140
404.855705	1.000475
405.237282	1.001364
405.618797	1.001265
406.000250	0.999993
406.381642	1.000590
406.762972	1.001874
407.144240	1.002007
407.525447	1.001774
407.906593	1.000806
408.287677	1.000869
408.668700	1.002023
409.049661	1.000643
409.430560	1.000800
409.811399	1.000458
410.192176	1.000638
410.572891	1.001124
410.953545	1.001033
411.334138	0.999619
411.714669	1.001760
412.095139	0.999882
412.475547	1.001339
412.855894	1.000877
413.236180	1.001429
413.616405	1.001182
413.996568	1.001277
414.376670	1.000690
414.756711	1.001414
415.136691	1.000889
415.516609	1.001031
415.896466	1.001190
416.276262	1.000222
416.655997	1.001457
417.035670	1.000260
417.415283	1.001091
417.794834	1.001058
418.174324	1.000775
418.553753	1.001237
418.933121	1.001386
419.312428	1.001223
419.691674	1.000872
420.070859	1.001527
420.449983	1.000569
420.829045	1.001321
421.208047	1.002475
421.586988	1.001351
421.965867	1.001130
422.344686	1.001725
422.723444	1.001022
423.102141	1.001300
423.480777	1.002109
423.859352	1.001242
424.237866	1.000649
424.616319	1.000928
424.994712	1.001256
425.373044	1.000951
425.751314	1.001213
426.129524	1.001217
426.507673	1.001295
426.885762	1.001864
427.263789	1.001879
427.641756	1.001335
428.019662	1.001667
428.397508	1.000871
428.775292	1.000421
429.153016	1.001180
429.530679	1.001478
429.908282	1.002246
430.285824	1.000946
430.663305	1.000966
431.040726	1.000679
431.418086	1.001721
431.795385	1.002025
432.172624	1.000532
432.549802	1.000907
432.926920	1.001515
433.303977	1.001262
433.680974	1.000856
434.057910	1.000712
434.434786	1.001884
434.811601	1.000833
435.188355	1.001130
435.565050	1.000671
435.941683	1.001271
436.318257	1.001863
436.694770	1.000929
437.071222	1.001625
437.447614	1.000589
437.823946	1.001418
438.200218	1.001187
438.576429	1.001425
438.952580	1.002088
439.328670	1.000450
439.704700	1.001623
440.080670	1.001426
440.456580	1.001254
440.832429	1.001017
441.208218	1.001582
441.583947	1.001071
441.959616	1.001751
442.335224	1.001919
442.710773	1.002626
443.086261	1.001412
443.461689	1.000323
443.837057	1.001454
444.212365	1.001270
444.587612	1.001353
444.962800	1.001522
445.337927	1.002026
445.712995	1.001733
446.088002	1.002177
446.462949	1.001362
446.837837	1.001441
447.212664	1.001803
447.587431	1.001227
447.962139	1.000776
448.336786	1.001342
448.711374	1.002203
449.085901	1.001586
449.460369	1.002207
449.834776	1.001382
450.209124	1.001844
450.583412	1.001305
450.957640	1.001159
451.331808	1.001066
451.705917	1.001556
452.079965	1.001252
452.453954	1.001468
452.827883	1.001134
453.201752	1.001594
453.575562	1.001929
453.949311	1.001771
454.323001	1.001211
454.696632	1.001683
455.070202	1.001209
455.443713	1.000913
455.817164	1.001009
456.190556	1.002093
456.563888	1.000631
456.937160	1.000941
457.310373	1.001234
457.683526	1.001426
458.056619	1.001278
458.429653	1.000719
458.802628	1.000323
459.175542	1.000757
459.548398	1.000728
459.921194	1.000753
460.293930	1.001454
460.666607	1.000960
461.039224	1.000135
461.411782	1.000736
461.784280	1.000508
462.156719	1.002372
462.529099	1.001446
462.901419	1.001224
463.273680	1.001215
463.645882	1.001567
464.018024	1.001962
464.390106	1.001754
464.762130	1.001871
465.134094	1.001455
465.505999	1.001161
465.877845	1.001257
466.249631	1.001436
466.621358	1.000902
466.993026	1.001306
467.364634	1.001508
467.736184	1.001716
468.107674	1.001495
468.479105	1.001405
468.850477	1.000884
469.221790	1.001817
469.593043	1.002064
469.964238	1.001889
470.335373	1.002259
470.706449	1.001772
471.077467	1.001345
471.448425	1.001691
471.819324	1.002574
472.190164	1.001185
472.560945	1.002101
472.931667	1.001861
473.302330	1.001134
473.672934	1.002021
474.043479	1.001650
474.413965	1.001764
474.784393	1.001700
475.154761	1.001532
475.525070	1.001066
475.895321	1.001589
476.265513	1.001347
476.635645	1.001701
477.005719	1.001848
477.375734	1.000921
477.745691	1.001548
478.115588	1.000956
478.485427	1.001944
478.855207	1.001270
479.224928	1.000974
479.594591	1.001433
479.964194	1.001348
480.333739	1.000909
480.703226	1.001397
481.072653	1.002320
481.442022	1.001973
481.811333	1.001459
482.180584	1.001948
482.549777	1.000975
482.918912	1.002555
483.287988	1.001678
483.657005	1.001176
484.025964	1.002124
484.394864	1.002357
484.763706	1.002354
485.132489	1.001571
485.501213	1.001607
485.869879	1.002091
486.238487	1.002529
486.607036	1.001924
486.975527	1.000642
487.343959	1.001285
487.712333	1.001579
488.080648	1.001717
488.448905	1.001945
488.817104	1.001969
489.185244	1.001921
489.553326	1.001715
489.921350	1.001711
490.289315	1.001507
490.657222	1.001866
491.025070	1.001791
491.392861	1.002589
491.760593	1.002639
492.128267	1.001589
492.495883	1.001682
492.863440	1.002050
493.230939	1.001649
493.598380	1.001430
493.965763	1.001789
494.333088	1.001733
494.700354	1.001524
495.067563	1.001302
495.434713	1.001654
495.801805	1.002249
496.168839	1.001691
496.535815	1.001494
496.902733	1.001606
497.269593	1.001435
497.636395	1.002207
498.003139	1.002126
498.369825	1.002813
498.736453	1.002217
499.103023	1.001332
499.469535	1.000962
499.835989	1.001476
500.202385	1.002108
500.568723	1.001715
500.935003	1.002027
501.301226	1.001623
501.667390	1.001485
502.033497	1.001657
502.399546	1.001839
502.765537	1.000777
503.131470	1.001516
503.497345	1.001449
503.863163	1.002844
504.228923	1.001301
504.594625	1.001991
504.960269	1.002614
505.325856	1.001794
505.691385	1.001798
506.056856	1.002265
506.422270	1.001670
506.787625	1.001763
507.152924	1.001758
507.518164	1.000946
507.883347	1.001814
508.248472	1.001302
508.613540	1.001735
508.978550	1.001579
509.343503	1.001059
509.708398	1.002168
510.073236	1.001798
510.438016	1.001568
510.802738	1.001271
511.167403	1.002155
511.532010	1.001910
511.896561	1.000906
512.261053	1.002489
512.625488	1.001887
512.989866	1.001017
513.354186	1.000780
513.718449	1.001349
514.082655	1.001515
514.446803	1.001949
514.810894	1.001794
515.174927	1.001112
515.538904	1.001192
515.902822	1.001417
516.266684	1.001857
516.630488	1.001813
516.994235	1.001305
517.357925	1.001776
517.721558	1.001835
518.085133	1.001459
518.448651	1.002397
518.812112	1.001574
519.175516	1.001704
519.538863	1.002016
519.902152	1.001712
520.265385	1.000968
520.628560	1.001722
520.991678	1.001646
521.354739	1.001978
521.717743	1.001662
522.080690	1.002183
522.443580	1.001485
522.806413	1.002032
523.169189	1.001079
523.531908	1.001253
523.894569	1.001199
524.257174	1.001758
524.619722	1.001625
524.982213	1.001670
525.344647	1.001788
525.707025	1.000934
526.069345	1.001435
526.431608	1.001665
526.793815	1.001200
527.155964	1.001269
527.518057	1.001946
527.880093	1.002342
528.242072	1.001415
528.603995	1.001423
528.965860	1.002501
529.327669	1.001762
529.689421	1.001774
530.051117	1.002217
530.412755	1.001342
530.774337	1.002437
531.135862	1.001767
531.497331	1.001912
531.858743	1.002308
532.220098	1.001917
532.581396	1.002330
532.942638	1.001523
533.303824	1.001625
533.664953	1.002411
534.026025	1.001549
534.387040	1.001297
534.747999	1.001996
535.108902	1.001771
535.469748	1.001551
535.830537	1.001857
536.191270	1.001734
536.551947	1.000791
536.912567	1.002102
537.273131	1.002312
537.633638	1.001426
537.994089	1.002326
538.354483	1.001757
538.714821	1.001555
539.075103	1.001615
539.435328	1.001577
539.795497	1.001243
540.155609	1.001209
540.515665	1.002273
540.875665	1.001814
541.235609	1.001610
541.595496	1.001811
541.955328	1.000995
542.315102	1.001879
542.674821	1.001504
543.034483	1.000914
543.394090	1.000993
543.753640	1.001493
544.113134	1.001316
544.472571	1.001586
544.831953	1.001272
545.191278	1.001039
545.550548	1.002180
545.909761	1.000516
546.268918	1.001428
546.628019	1.002297
546.987064	1.001863
547.346053	1.001769
547.704986	1.001791
548.063863	1.001746
548.422684	1.001798
548.781449	1.001992
549.140158	1.000648
549.498811	1.002202
549.857408	1.002132
550.215949	1.002106
550.574434	1.001531
550.932864	1.001808
551.291237	1.001956
551.649555	1.002121
552.007817	1.001972
552.366022	1.001431
552.724173	1.002331
553.082267	1.001831
553.440305	1.001370
553.798288	1.001651
554.156215	1.002109
554.514086	1.002140
554.871902	1.001543
555.229661	1.001032
555.587365	1.001668
555.945014	1.001991
556.302606	1.001304
556.660143	1.001797
557.017625	1.001832
557.375050	1.000937
557.732421	1.001420
558.089735	1.001791
558.446994	1.002333
558.804197	1.002164
559.161345	1.002970
559.518437	1.002452
559.875474	1.001168
560.232455	1.001570
560.589381	1.001831
560.946251	1.001095
561.303065	1.001750
561.659825	1.001745
562.016528	1.001094
562.373177	1.001045
562.729770	1.001591
563.086307	1.001939
563.442789	1.001674
563.799216	1.001378
564.155587	1.001119
564.511904	1.001293
564.868164	1.000667
565.224370	1.001239
565.580520	1.001600
565.936615	1.001768
566.292654	1.001431
566.648638	1.001703
567.004567	1.001176
567.360441	1.001231
567.716260	1.002305
568.072023	1.001797
568.427732	1.001773
568.783385	1.001451
569.138982	1.001236
569.494525	1.001294
569.850013	1.001936
570.205445	1.001452
570.560823	1.001988
570.916145	1.001264
571.271412	1.001709
571.626625	1.001616
571.981782	1.001109
572.336884	1.002114
572.691931	1.001970
573.046923	1.000588
573.401860	1.001398
573.756743	1.001251
574.111570	1.001879
574.466342	1.001865
574.821059	1.001591
575.175722	1.001411
575.530330	1.001738
575.884882	1.000991
576.239380	1.002033
576.593823	1.001332
576.948211	1.001376
577.302544	1.001798
577.656823	1.001791
578.011047	1.001351
578.365216	1.001423
578.719330	1.001183
579.073389	1.001351
579.427394	1.001254
579.781344	1.000871
580.135239	1.001219
580.489080	1.001651
580.842866	1.001205
581.196597	1.000892
581.550273	1.000578
581.903895	1.001292
582.257463	1.001394
582.610975	1.000860
582.964434	1.001175
583.317837	1.001729
583.671186	1.001152
584.024481	1.000806
584.377721	1.001489
584.730906	1.001323
585.084037	1.001268
585.437113	1.001441
585.790135	1.001438
586.143103	1.000759
586.496016	1.002045
586.848874	1.000830
587.201679	1.001565
587.554428	1.001043
587.907124	1.001249
588.259765	1.000991
588.612352	1.002040
588.964884	1.001537
589.317362	1.002398
589.669786	1.001852
590.022155	1.001226
590.374470	1.001187
590.726731	1.001203
591.078937	1.000380
591.431090	1.001073
591.783188	1.001404
592.135232	1.001137
592.487222	1.001596
592.839157	1.000729
593.191038	1.001659
593.542866	1.000776
593.894639	1.002236
594.246358	1.001215
594.598022	1.001413
594.949633	1.001414
595.301190	1.000939
595.652692	1.002223
596.004141	1.001961
596.355535	1.001568
596.706876	1.001221
597.058162	1.001648
597.409395	1.001282
597.760573	1.001466
598.111698	1.000498
598.462768	1.000729
598.813785	1.000861
599.164748	1.001072
599.515657	1.001356
599.866511	1.001048
600.217312	1.001365
600.568060	1.001291
600.918753	1.001709
601.269392	1.000699
601.619978	1.000707
601.970510	1.001697
602.320988	1.002154
602.671412	1.000685
603.021783	1.001395
603.372100	1.002683
603.722363	1.002249
604.072572	1.001511
604.422728	1.002006
604.772830	1.000891
605.122878	1.001531
605.472872	1.001406
605.822813	1.000936
606.172701	1.001086
606.522534	1.001575
606.872314	1.001540
607.222041	1.001445
607.571714	1.001953
607.921333	1.000794
608.270899	1.000934
608.620411	1.001941
608.969870	1.001967
609.319276	1.001355
609.668627	1.002041
610.017926	1.000559
610.367171	1.000914
610.716362	1.000751
611.065500	1.000557
611.414585	1.000281
611.763616	1.001730
612.112594	1.000763
612.461518	1.000898
612.810389	1.000785
613.159207	1.001285
613.507971	1.000490
613.856682	1.001290
614.205340	1.001522
614.553945	1.000409
614.902496	1.000865
615.250994	1.000825
615.599439	1.001232
615.947830	1.000914
616.296169	1.001557
616.644454	1.000823
616.992686	1.001260
617.340864	1.001010
617.688990	1.000866
618.037063	1.001418
618.385082	1.000997
618.733048	1.000563
619.080961	1.000887
619.428821	1.001262
619.776628	1.001082
620.124382	1.001485
620.472083	1.000011
620.819731	1.001372
621.167326	1.001372
621.514868	1.000774
621.862357	1.000992
622.209793	1.000856
622.557176	1.000331
622.904506	1.001189
623.251783	1.000247
623.599007	1.000430
623.946179	1.001111
624.293297	1.000679
624.640363	1.001092
624.987376	0.999872
625.334336	1.001589
625.681243	1.000799
626.028097	1.001706
626.374899	1.001622
626.721647	1.001055
627.068343	1.001350
627.414987	1.000553
627.761577	1.001558
628.108115	1.002250
628.454600	1.001263
628.801032	1.000403
629.147412	1.001161
629.493739	1.001011
629.840014	1.001376
630.186236	1.001226
630.532405	1.001157
630.878521	1.000798
631.224585	1.001661
631.570597	1.000856
631.916556	1.000558
632.262462	1.001190
632.608316	1.001971
632.954117	1.000669
633.299866	1.000621
633.645562	1.000893
633.991206	1.001268
634.336797	1.002194
634.682336	1.001231
635.027823	1.001216
635.373257	1.001449
635.718639	1.000900
636.063968	1.000269
636.409245	1.000914
636.754470	1.000776
637.099642	1.002258
637.444762	1.001105
637.789829	1.000447
638.134845	1.000738
638.479808	1.001364
638.824719	1.000339
639.169577	1.000312
639.514383	1.000494
639.859137	1.000440
640.203839	1.001431
640.548489	0.999961
640.893086	1.001639
641.237632	1.001353
641.582125	0.999943
641.926566	1.000246
642.270955	1.001112
642.615292	1.001419
642.959576	1.001612
643.303809	1.001357
643.647990	1.000505
643.992118	1.000973
644.336195	1.001080
644.680219	1.001346
645.024192	1.001339
645.368112	1.000726
645.711981	1.001595
646.055797	1.000733
646.399562	1.000504
646.743274	0.999034
647.086935	1.000062
647.430544	0.999615
647.774101	1.000813
648.117606	1.000718
648.461059	1.000229
648.804460	1.000027
649.147810	1.000910
649.491108	1.000581
649.834354	1.000782
650.177548	1.001046
650.520690	1.001177
650.863781	1.000843
651.206820	1.000909
651.549807	1.001433
651.892742	1.000640
652.235626	1.001245
652.578458	1.000698
652.921238	1.000214
653.263967	1.001861
653.606644	1.000733
653.949269	1.000946
654.291843	1.000569
654.634365	1.000514
654.976836	1.001031
655.319255	1.000926
655.661622	1.001122
656.003938	1.001054
656.346203	1.000480
656.688416	1.001466
657.030577	1.000993
657.372687	0.999953
657.714746	1.000951
658.056753	1.000670
658.398708	1.000714
658.740612	1.001270
659.082465	1.000869
659.424266	1.001632
659.766016	1.000293
660.107715	0.999882
660.449362	1.000552
660.790958	1.000577
661.132503	0.999279
661.473996	1.000650
661.815438	1.000183
662.156829	0.999841
662.498168	1.001238
662.839456	0.999992
663.180693	1.000725
663.521879	1.000301
663.863013	1.001342
664.204097	1.001133
664.545129	1.000296
664.886110	1.000749
665.227040	1.000067
665.567918	1.000706
665.908746	1.000518
666.249522	1.000499
666.590248	1.000466
666.930922	1.000943
667.271545	1.000761
667.612118	1.001296
667.952639	1.001167
668.293109	0.999877
668.633528	1.001144
668.973896	1.001102
669.314213	0.999279
669.654480	1.000668
669.994695	1.000331
670.334859	1.000477
670.674973	0.999978
671.015035	1.001123
671.355047	1.000492
671.695008	1.000405
672.034918	1.000496
672.374777	1.001017
672.714585	1.000242
673.054342	1.000753
673.394049	1.000734
673.733705	1.000160
674.073310	1.000034
674.412864	0.999894
674.752368	1.000021
675.091820	1.001500
675.431223	1.000523
675.770574	0.999925
676.109875	1.000988
676.449125	1.001008
676.788324	0.999876
677.127473	1.002289
677.466571	1.001296
677.805619	1.000605
678.144616	1.000320
678.483562	0.999789
678.822458	1.000979
679.161303	1.001699
679.500098	1.000525
679.838842	1.001296
680.177535	1.000929
680.516179	1.001025
680.854771	1.001081
681.193314	1.000317
681.531805	0.999948
681.870247	0.999719
682.208638	1.000016
682.546978	0.999137
682.885268	0.999567
683.223508	1.001214
683.561697	0.999304
683.899836	1.000841
684.237925	1.000523
684.575963	0.999959
684.913951	0.999730
685.251889	1.000785
685.589776	1.000608
685.927614	1.000288
686.265401	0.999933
686.603137	1.000186
686.940824	1.000072
687.278460	1.000226
687.616046	0.999897
687.953582	0.999678
688.291068	1.000183
688.628504	1.001206
