Dividing Wavelength (nm)	Counts (n)	Blue Motor Position (mm): 0.000000	Red Motor Position (mm): 48.100000	
326.493990	1.000466
326.888308	1.000466
327.282561	1.000466
327.676750	1.001137
328.070874	0.999328
328.464933	1.001292
328.858929	0.999671
329.252859	0.999119
329.646726	0.999081
330.040528	0.999237
330.434265	1.000170
330.827938	1.001830
331.221547	1.001666
331.615091	0.999094
332.008571	1.000138
332.401986	1.000453
332.795338	1.000547
333.188625	0.998737
333.581847	0.999780
333.975006	0.999715
334.368100	0.999612
334.761129	0.999833
335.154095	1.001046
335.546996	1.000789
335.939833	0.999518
336.332606	1.000566
336.725315	1.000759
337.117960	1.002536
337.510540	0.999931
337.903056	1.000569
338.295508	0.998420
338.687896	1.000113
339.080220	1.000379
339.472480	0.999515
339.864676	1.000300
340.256807	1.000201
340.648875	1.002621
341.040879	1.001988
341.432818	1.000064
341.824694	1.000643
342.216506	1.000833
342.608253	1.000077
342.999937	1.000167
343.391557	1.000721
343.783113	1.000632
344.174605	1.001257
344.566033	1.000068
344.957397	1.000203
345.348697	1.000261
345.739934	1.001126
346.131106	0.999996
346.522215	0.999566
346.913260	0.999553
347.304241	0.999834
347.695159	0.999601
348.086012	0.999345
348.476802	1.000102
348.867528	1.000912
349.258191	0.998815
349.648789	1.000116
350.039324	1.000168
350.429796	1.000608
350.820203	1.000312
351.210548	1.000445
351.600828	0.999900
351.991045	1.000397
352.381198	0.999273
352.771288	1.000339
353.161314	0.999969
353.551276	1.001086
353.941175	0.999973
354.331010	1.000662
354.720782	1.002031
355.110490	0.999521
355.500135	1.000628
355.889717	0.999703
356.279235	0.999578
356.668689	0.999924
357.058080	0.999741
357.447408	1.001946
357.836672	0.999503
358.225873	1.000943
358.615010	0.999958
359.004084	1.001639
359.393095	0.999891
359.782043	0.999329
360.170927	1.001462
360.559748	1.000221
360.948505	1.000083
361.337199	0.999923
361.725830	1.000935
362.114398	1.000976
362.502903	1.001789
362.891344	1.001752
363.279722	0.999246
363.668037	1.001655
364.056289	1.000324
364.444478	1.000850
364.832603	1.000930
365.220665	1.001097
365.608665	0.999607
365.996601	1.000561
366.384474	0.999822
366.772284	0.999339
367.160031	0.999398
367.547715	1.000146
367.935336	1.000196
368.322893	0.999039
368.710388	0.999551
369.097820	1.000624
369.485189	0.999962
369.872495	1.000469
370.259738	0.996925
370.646918	0.999416
371.034035	1.000703
371.421090	0.999808
371.808081	0.999661
372.195010	1.001376
372.581875	1.000709
372.968678	1.000667
373.355418	1.000496
373.742096	0.999074
374.128710	1.000421
374.515262	0.999317
374.901751	1.000871
375.288177	1.000602
375.674540	1.000118
376.060841	1.000038
376.447079	1.000705
376.833254	1.001032
377.219367	0.999749
377.605417	1.000709
377.991404	1.000379
378.377329	0.999911
378.763191	1.000121
379.148991	1.000537
379.534727	1.001228
379.920402	1.000817
380.306013	1.000392
380.691563	1.002285
381.077049	1.000212
381.462474	1.000193
381.847835	1.000099
382.233134	0.999504
382.618371	1.000342
383.003545	1.000172
383.388657	0.999640
383.773706	1.000275
384.158693	1.001223
384.543618	1.000646
384.928480	1.001391
385.313280	0.999562
385.698017	1.000534
386.082692	1.001486
386.467305	1.000644
386.851856	0.999912
387.236344	0.999752
387.620770	0.999455
388.005133	1.000352
388.389435	1.001496
388.773674	1.000049
389.157851	1.000450
389.541965	1.000148
389.926018	0.999991
390.310008	1.001052
390.693936	1.000764
391.077802	1.001080
391.461606	1.001219
391.845348	1.000970
392.229027	1.001726
392.612645	1.001028
392.996200	1.001952
393.379694	1.000502
393.763125	1.001564
394.146494	1.001311
394.529801	1.000116
394.913047	1.000744
395.296230	1.001360
395.679351	1.000740
396.062410	0.999832
396.445408	1.000820
396.828343	1.000515
397.211217	1.000112
397.594028	1.001380
397.976778	1.000687
398.359466	1.001258
398.742092	0.999975
399.124656	1.000515
399.507158	1.000795
399.889598	1.001313
400.271977	1.000799
400.654294	1.000277
401.036549	1.001751
401.418742	1.001662
401.800874	1.000697
402.182944	1.000784
402.564952	1.000136
402.946898	1.001478
403.328783	1.000706
403.710606	1.000484
404.092367	0.999983
404.474067	1.001680
404.855705	1.000747
405.237282	1.000205
405.618797	1.000735
406.000250	1.000079
406.381642	1.000986
406.762972	1.000917
407.144240	1.001351
407.525447	1.001025
407.906593	1.000449
408.287677	1.000539
408.668700	1.001887
409.049661	1.000777
409.430560	1.000764
409.811399	1.000130
410.192176	1.000858
410.572891	1.000605
410.953545	1.000176
411.334138	1.000023
411.714669	1.000169
412.095139	1.000431
412.475547	1.000798
412.855894	1.000846
413.236180	1.000886
413.616405	1.001326
413.996568	1.001122
414.376670	1.001099
414.756711	1.000923
415.136691	1.000549
415.516609	1.000564
415.896466	1.001521
416.276262	1.000253
416.655997	1.000767
417.035670	1.000753
417.415283	1.001403
417.794834	1.000401
418.174324	1.000232
418.553753	1.000748
418.933121	1.000208
419.312428	1.000415
419.691674	1.000422
420.070859	1.000764
420.449983	1.000655
420.829045	1.001097
421.208047	1.001443
421.586988	1.001484
421.965867	1.000259
422.344686	1.001759
422.723444	1.001051
423.102141	1.000805
423.480777	1.001136
423.859352	1.000702
424.237866	1.000286
424.616319	1.000474
424.994712	1.000710
425.373044	1.001294
425.751314	1.001603
426.129524	1.000009
426.507673	1.000813
426.885762	1.001428
427.263789	1.001241
427.641756	1.001051
428.019662	1.001107
428.397508	1.000944
428.775292	1.000192
429.153016	1.000819
429.530679	1.000761
429.908282	1.001026
430.285824	1.000219
430.663305	1.000597
431.040726	1.000659
431.418086	1.001987
431.795385	1.001483
432.172624	1.001285
432.549802	1.001807
432.926920	1.001197
433.303977	1.000319
433.680974	1.000591
434.057910	1.001294
434.434786	1.000954
434.811601	1.000471
435.188355	1.000556
435.565050	1.000257
435.941683	1.000716
436.318257	1.001874
436.694770	0.999868
437.071222	1.000765
437.447614	1.001100
437.823946	1.000674
438.200218	1.001631
438.576429	1.000809
438.952580	1.001506
439.328670	1.000457
439.704700	1.001519
440.080670	1.001240
440.456580	1.000988
440.832429	1.000873
441.208218	1.000451
441.583947	1.001086
441.959616	1.001593
442.335224	1.000280
442.710773	1.002203
443.086261	1.000279
443.461689	1.000515
443.837057	1.000599
444.212365	1.001567
444.587612	1.000853
444.962800	1.000693
445.337927	1.000882
445.712995	1.001239
446.088002	1.001241
446.462949	1.001212
446.837837	1.001380
447.212664	1.001289
447.587431	1.000688
447.962139	1.000630
448.336786	1.001430
448.711374	1.001580
449.085901	1.001248
449.460369	1.002179
449.834776	1.000764
450.209124	1.001278
450.583412	1.000795
450.957640	1.001163
451.331808	1.001031
451.705917	1.000742
452.079965	1.000970
452.453954	1.001424
452.827883	1.000448
453.201752	1.001138
453.575562	1.001964
453.949311	1.001212
454.323001	1.001485
454.696632	1.000995
455.070202	1.001080
455.443713	1.000856
455.817164	1.000620
456.190556	1.000550
456.563888	1.000553
456.937160	1.001083
457.310373	1.000307
457.683526	1.000988
458.056619	1.001485
458.429653	1.000782
458.802628	1.000529
459.175542	1.000399
459.548398	1.001300
459.921194	1.000724
460.293930	1.001200
460.666607	0.999645
461.039224	0.999876
461.411782	1.000683
461.784280	1.000495
462.156719	1.001177
462.529099	1.000986
462.901419	1.001427
463.273680	1.000489
463.645882	1.001351
464.018024	1.000502
464.390106	1.001283
464.762130	1.001810
465.134094	1.001235
465.505999	1.001853
465.877845	1.000767
466.249631	1.001386
466.621358	1.001088
466.993026	1.000962
467.364634	1.000571
467.736184	1.001232
468.107674	1.001027
468.479105	1.000318
468.850477	1.000994
469.221790	1.001734
469.593043	1.001796
469.964238	1.002186
470.335373	1.000980
470.706449	1.000443
471.077467	1.001391
471.448425	1.000702
471.819324	1.001449
472.190164	1.000663
472.560945	1.001273
472.931667	1.000634
473.302330	1.000753
473.672934	1.001549
474.043479	1.001176
474.413965	1.001241
474.784393	1.001052
475.154761	1.001151
475.525070	1.000715
475.895321	1.001182
476.265513	1.000722
476.635645	1.001185
477.005719	1.001600
477.375734	1.000305
477.745691	1.000923
478.115588	1.001352
478.485427	1.001213
478.855207	1.001509
479.224928	1.001583
479.594591	1.000883
479.964194	1.001432
480.333739	1.001692
480.703226	1.001095
481.072653	1.001541
481.442022	1.001198
481.811333	1.000133
482.180584	1.001202
482.549777	1.000319
482.918912	1.001090
483.287988	1.001031
483.657005	1.000962
484.025964	1.001672
484.394864	1.001903
484.763706	1.001029
485.132489	1.000879
485.501213	1.001139
485.869879	1.000998
486.238487	1.001681
486.607036	1.001510
486.975527	1.001178
487.343959	1.001053
487.712333	1.001227
488.080648	1.001121
488.448905	1.000693
488.817104	1.001590
489.185244	1.001912
489.553326	1.001372
489.921350	1.001282
490.289315	1.001360
490.657222	1.001465
491.025070	1.001581
491.392861	1.001809
491.760593	1.001660
492.128267	1.001497
492.495883	1.001490
492.863440	1.001031
493.230939	1.001219
493.598380	1.001382
493.965763	1.001408
494.333088	1.001597
494.700354	1.001472
495.067563	1.000997
495.434713	1.001009
495.801805	1.001738
496.168839	1.000797
496.535815	1.000518
496.902733	1.000816
497.269593	1.000831
497.636395	1.001670
498.003139	1.001311
498.369825	1.001877
498.736453	1.000969
499.103023	1.000750
499.469535	1.001159
499.835989	1.001147
500.202385	1.001350
500.568723	1.001284
500.935003	1.001323
501.301226	1.001372
501.667390	1.001100
502.033497	1.001128
502.399546	1.002111
502.765537	1.000400
503.131470	1.000789
503.497345	1.000976
503.863163	1.002114
504.228923	1.000967
504.594625	1.001342
504.960269	1.001770
505.325856	1.001036
505.691385	1.000994
506.056856	1.000954
506.422270	1.001187
506.787625	1.001022
507.152924	1.001452
507.518164	1.000688
507.883347	1.000750
508.248472	1.001540
508.613540	1.001253
508.978550	1.002059
509.343503	0.999942
509.708398	1.000984
510.073236	1.000945
510.438016	1.000827
510.802738	1.000825
511.167403	1.001486
511.532010	1.000899
511.896561	1.000756
512.261053	1.001866
512.625488	1.001214
512.989866	1.001270
513.354186	1.000912
513.718449	1.001014
514.082655	1.001705
514.446803	1.001023
514.810894	1.001370
515.174927	1.001706
515.538904	1.000767
515.902822	1.001233
516.266684	1.000741
516.630488	1.002108
516.994235	1.000942
517.357925	1.000963
517.721558	1.001462
518.085133	1.000057
518.448651	1.002008
518.812112	1.001253
519.175516	1.000694
519.538863	1.001406
519.902152	1.000606
520.265385	1.000482
520.628560	1.001498
520.991678	1.001293
521.354739	1.001556
521.717743	1.001239
522.080690	1.001539
522.443580	1.001361
522.806413	1.001594
523.169189	1.000929
523.531908	1.000219
523.894569	1.000779
524.257174	1.001460
524.619722	1.001367
524.982213	1.001200
525.344647	1.001220
525.707025	1.000868
526.069345	1.000756
526.431608	1.001382
526.793815	1.001822
527.155964	1.001205
527.518057	1.001340
527.880093	1.001639
528.242072	1.001399
528.603995	1.001539
528.965860	1.001213
529.327669	1.001136
529.689421	1.000711
530.051117	1.001759
530.412755	1.001014
530.774337	1.001451
531.135862	1.000561
531.497331	1.001469
531.858743	1.001746
532.220098	1.001634
532.581396	1.001261
532.942638	1.001964
533.303824	1.000728
533.664953	1.001668
534.026025	1.001030
534.387040	1.000879
534.747999	1.001701
535.108902	1.001572
535.469748	1.001023
535.830537	1.000552
536.191270	1.001270
536.551947	1.000611
536.912567	1.001573
537.273131	1.001794
537.633638	1.000772
537.994089	1.000999
538.354483	1.002009
538.714821	1.001574
539.075103	1.000979
539.435328	1.001435
539.795497	1.001086
540.155609	1.000638
540.515665	1.001089
540.875665	1.000750
541.235609	1.001564
541.595496	1.000218
541.955328	1.000753
542.315102	1.001043
542.674821	1.001243
543.034483	1.000392
543.394090	1.000606
543.753640	1.001579
544.113134	1.001988
544.472571	1.001460
544.831953	1.001478
545.191278	1.001172
545.550548	1.001505
545.909761	1.000610
546.268918	1.001452
546.628019	1.001936
546.987064	1.000858
547.346053	1.000997
547.704986	1.001456
548.063863	1.001322
548.422684	1.001524
548.781449	1.001510
549.140158	1.000629
549.498811	1.001327
549.857408	1.001353
550.215949	1.001129
550.574434	1.001019
550.932864	1.001063
551.291237	1.001197
551.649555	1.001641
552.007817	1.001226
552.366022	1.001080
552.724173	1.002019
553.082267	1.001679
553.440305	1.000822
553.798288	1.001395
554.156215	1.000653
554.514086	1.000982
554.871902	1.001022
555.229661	1.001112
555.587365	1.001149
555.945014	1.002047
556.302606	1.001407
556.660143	1.001470
557.017625	1.001165
557.375050	1.001310
557.732421	1.001331
558.089735	1.001371
558.446994	1.001429
558.804197	1.001838
559.161345	1.001942
559.518437	1.001869
559.875474	1.000920
560.232455	1.000998
560.589381	1.001722
560.946251	1.000203
561.303065	1.001226
561.659825	1.001306
562.016528	1.001297
562.373177	1.000948
562.729770	1.001083
563.086307	1.001036
563.442789	1.001261
563.799216	1.000904
564.155587	1.000996
564.511904	1.000527
564.868164	1.000847
565.224370	1.001542
565.580520	1.001905
565.936615	1.000620
566.292654	1.000907
566.648638	1.001294
567.004567	1.000993
567.360441	1.001654
567.716260	1.001402
568.072023	1.001817
568.427732	1.001030
568.783385	1.001354
569.138982	1.000890
569.494525	1.000856
569.850013	1.001513
570.205445	1.001172
570.560823	1.001127
570.916145	1.000920
571.271412	1.000930
571.626625	1.001290
571.981782	1.001004
572.336884	1.001096
572.691931	1.001274
573.046923	1.000567
573.401860	1.001187
573.756743	1.000617
574.111570	1.001432
574.466342	1.001458
574.821059	1.001442
575.175722	1.000478
575.530330	1.001082
575.884882	1.000905
576.239380	1.001262
576.593823	1.000768
576.948211	1.001251
577.302544	1.000330
577.656823	1.001004
578.011047	1.001262
578.365216	1.001036
578.719330	0.999678
579.073389	1.001265
579.427394	1.001324
579.781344	1.001579
580.135239	1.000964
580.489080	1.000914
580.842866	1.000943
581.196597	1.000550
581.550273	1.000598
581.903895	1.001040
582.257463	1.000805
582.610975	1.000573
582.964434	1.001482
583.317837	1.002180
583.671186	1.000888
584.024481	1.000531
584.377721	1.000965
584.730906	1.000639
585.084037	1.000936
585.437113	1.000445
585.790135	1.000587
586.143103	1.000409
586.496016	1.001590
586.848874	1.000464
587.201679	1.000966
587.554428	1.001035
587.907124	1.000331
588.259765	1.000634
588.612352	1.001332
588.964884	1.001756
589.317362	1.001246
589.669786	1.001432
590.022155	1.001147
590.374470	1.000423
590.726731	1.000270
591.078937	1.000096
591.431090	1.000444
591.783188	1.000245
592.135232	1.001077
592.487222	1.001081
592.839157	1.000654
593.191038	1.001381
593.542866	1.000492
593.894639	1.001473
594.246358	1.000901
594.598022	1.000666
594.949633	1.001425
595.301190	1.000458
595.652692	1.000951
596.004141	1.001141
596.355535	1.000828
596.706876	1.000818
597.058162	1.001014
597.409395	1.000506
597.760573	1.001171
598.111698	1.000947
598.462768	1.000015
598.813785	1.000663
599.164748	1.000935
599.515657	1.000715
599.866511	1.000713
600.217312	0.999745
600.568060	1.000705
600.918753	1.000742
601.269392	1.001285
601.619978	1.000138
601.970510	1.000380
602.320988	1.000685
602.671412	1.000857
603.021783	1.000625
603.372100	1.001135
603.722363	1.001074
604.072572	1.000665
604.422728	1.000917
604.772830	1.000831
605.122878	1.000450
605.472872	1.000507
605.822813	0.999932
606.172701	1.000356
606.522534	1.001018
606.872314	1.000678
607.222041	1.000378
607.571714	1.000914
607.921333	0.999864
608.270899	1.000754
608.620411	1.000972
608.969870	1.000883
609.319276	1.000265
609.668627	1.000336
610.017926	0.999780
610.367171	0.999791
610.716362	1.000764
611.065500	1.000218
611.414585	1.000584
611.763616	1.000728
612.112594	0.999774
612.461518	1.000391
612.810389	1.000970
613.159207	1.000556
613.507971	1.000222
613.856682	1.000610
614.205340	1.001746
614.553945	0.999869
614.902496	1.000126
615.250994	1.000333
615.599439	1.001615
615.947830	1.000302
616.296169	1.000979
616.644454	0.999621
616.992686	1.000732
617.340864	1.000476
617.688990	1.000810
618.037063	1.000932
618.385082	1.000341
618.733048	1.000742
619.080961	1.001230
619.428821	1.002110
619.776628	1.000212
620.124382	1.000121
620.472083	0.999562
620.819731	1.000021
621.167326	1.000487
621.514868	1.000140
621.862357	1.000697
622.209793	1.000581
622.557176	0.999224
622.904506	0.999920
623.251783	0.999693
623.599007	1.000921
623.946179	1.000825
624.293297	0.999940
624.640363	1.000743
624.987376	0.999406
625.334336	1.000740
625.681243	1.000439
626.028097	1.000533
626.374899	1.000429
626.721647	1.000779
627.068343	1.000817
627.414987	1.000370
627.761577	0.999913
628.108115	1.000310
628.454600	1.000894
628.801032	1.000112
629.147412	1.000483
629.493739	0.999668
629.840014	1.000631
630.186236	1.000626
630.532405	0.999701
630.878521	1.000327
631.224585	1.000482
631.570597	1.000239
631.916556	1.000376
632.262462	1.000210
632.608316	1.000877
632.954117	0.999509
633.299866	1.000179
633.645562	1.000433
633.991206	1.000255
634.336797	1.000956
634.682336	1.000038
635.027823	1.000430
635.373257	1.000506
635.718639	1.000407
636.063968	0.999666
636.409245	1.000097
636.754470	1.000177
637.099642	1.001103
637.444762	1.000071
637.789829	0.999879
638.134845	1.000050
638.479808	0.999974
638.824719	1.000664
639.169577	0.999290
639.514383	0.999883
639.859137	0.999470
640.203839	1.000217
640.548489	1.000262
640.893086	0.999644
641.237632	1.000922
641.582125	0.999959
641.926566	0.999819
642.270955	0.999999
642.615292	1.000701
642.959576	1.000104
643.303809	1.000501
643.647990	1.000096
643.992118	1.000086
644.336195	1.000608
644.680219	0.999862
645.024192	1.000788
645.368112	0.999524
645.711981	1.000249
646.055797	0.999842
646.399562	0.999271
646.743274	0.999063
647.086935	1.000151
647.430544	0.999579
647.774101	0.999298
648.117606	1.000308
648.461059	0.999662
648.804460	0.999337
649.147810	1.000316
649.491108	1.000048
649.834354	1.000410
650.177548	1.000550
650.520690	0.999994
650.863781	0.999698
651.206820	1.000014
651.549807	0.999715
651.892742	1.000073
652.235626	0.999956
652.578458	1.000010
652.921238	1.000405
653.263967	1.000966
653.606644	1.000824
653.949269	1.000908
654.291843	0.999826
654.634365	0.999560
654.976836	0.999762
655.319255	0.999715
655.661622	1.000230
656.003938	1.000185
656.346203	1.000120
656.688416	1.000809
657.030577	1.000701
657.372687	0.999797
657.714746	0.999371
658.056753	0.999644
658.398708	1.000124
658.740612	1.001181
659.082465	1.000677
659.424266	1.000503
659.766016	0.999576
660.107715	0.999209
660.449362	0.999573
660.790958	0.999431
661.132503	0.999135
661.473996	0.999561
661.815438	0.999511
662.156829	0.999360
662.498168	1.000345
662.839456	0.999917
663.180693	1.000917
663.521879	1.000602
663.863013	1.000328
664.204097	1.000267
664.545129	0.999680
664.886110	1.000114
665.227040	0.998731
665.567918	0.999575
665.908746	0.999623
666.249522	0.999241
666.590248	0.999853
666.930922	1.000785
667.271545	1.000126
667.612118	1.000555
667.952639	0.999442
668.293109	1.000160
668.633528	1.000082
668.973896	1.000838
669.314213	0.999683
669.654480	0.999373
669.994695	1.000365
670.334859	1.000288
670.674973	0.998707
671.015035	0.999106
671.355047	0.999253
671.695008	0.999768
672.034918	0.999841
672.374777	0.999384
672.714585	1.000024
673.054342	1.000542
673.394049	0.999519
673.733705	0.999303
674.073310	0.999375
674.412864	0.999736
674.752368	0.999434
675.091820	1.000620
675.431223	0.999979
675.770574	0.999091
676.109875	0.999819
676.449125	0.999382
676.788324	0.999692
677.127473	1.000596
677.466571	1.000227
677.805619	0.999651
678.144616	0.999542
678.483562	0.999294
678.822458	0.998667
679.161303	1.000630
679.500098	0.999946
679.838842	1.000320
680.177535	1.000927
680.516179	1.001147
680.854771	1.000440
681.193314	0.999356
681.531805	0.999190
681.870247	0.999847
682.208638	0.999254
682.546978	0.998847
682.885268	0.999300
683.223508	0.999935
683.561697	0.998816
683.899836	0.999918
684.237925	1.000410
684.575963	0.999415
684.913951	0.998687
685.251889	1.000062
685.589776	0.998855
685.927614	0.999755
686.265401	0.999687
686.603137	0.999965
686.940824	0.999611
687.278460	0.998962
687.616046	0.999667
687.953582	0.999175
688.291068	0.999587
688.628504	1.000200
