Dividing Wavelength (nm)	Counts (n)	Blue Motor Position (mm): 0.000000	Red Motor Position (mm): 46.200000	
326.493990	1.001673
326.888308	1.001673
327.282561	1.001673
327.676750	0.999272
328.070874	0.999988
328.464933	1.001539
328.858929	0.999431
329.252859	0.999649
329.646726	0.999887
330.040528	0.999940
330.434265	1.000568
330.827938	1.002117
331.221547	1.001571
331.615091	1.001188
332.008571	1.000335
332.401986	0.999842
332.795338	1.001599
333.188625	0.999290
333.581847	1.001737
333.975006	0.999761
334.368100	1.000173
334.761129	1.000332
335.154095	1.000978
335.546996	0.999531
335.939833	1.000031
336.332606	1.000271
336.725315	1.000931
337.117960	1.001094
337.510540	1.000080
337.903056	1.000574
338.295508	0.998875
338.687896	1.000792
339.080220	1.000538
339.472480	1.000994
339.864676	1.000266
340.256807	0.999465
340.648875	1.000999
341.040879	1.000456
341.432818	0.999957
341.824694	0.999156
342.216506	1.000037
342.608253	1.000371
342.999937	1.000359
343.391557	1.000159
343.783113	1.002043
344.174605	1.000712
344.566033	1.000405
344.957397	0.998037
345.348697	1.000229
345.739934	1.001542
346.131106	1.000196
346.522215	1.000329
346.913260	0.999762
347.304241	1.000395
347.695159	0.999446
348.086012	0.999094
348.476802	1.000670
348.867528	1.000604
349.258191	0.998803
349.648789	1.001100
350.039324	1.000254
350.429796	1.001306
350.820203	1.001789
351.210548	1.000344
351.600828	1.000177
351.991045	0.999950
352.381198	0.999717
352.771288	0.999718
353.161314	1.000918
353.551276	1.001429
353.941175	1.000731
354.331010	1.000542
354.720782	1.000314
355.110490	0.999933
355.500135	1.001353
355.889717	1.000063
356.279235	0.999632
356.668689	0.999300
357.058080	1.000582
357.447408	1.001056
357.836672	1.000770
358.225873	1.001023
358.615010	0.999894
359.004084	1.001767
359.393095	1.000268
359.782043	1.001416
360.170927	0.999462
360.559748	1.002201
360.948505	1.000489
361.337199	1.000167
361.725830	1.001268
362.114398	1.000679
362.502903	1.001120
362.891344	1.001519
363.279722	0.998899
363.668037	1.000905
364.056289	0.999865
364.444478	1.001129
364.832603	1.001080
365.220665	1.000336
365.608665	1.000808
365.996601	1.000026
366.384474	1.000106
366.772284	1.000580
367.160031	1.000170
367.547715	1.000101
367.935336	1.000089
368.322893	1.000465
368.710388	0.999683
369.097820	1.000438
369.485189	1.000083
369.872495	0.999248
370.259738	0.999034
370.646918	1.000935
371.034035	1.000426
371.421090	0.999010
371.808081	0.998960
372.195010	1.000896
372.581875	1.000543
372.968678	0.999713
373.355418	1.000617
373.742096	1.000494
374.128710	1.000580
374.515262	0.999216
374.901751	0.999079
375.288177	0.999412
375.674540	1.000309
376.060841	0.998863
376.447079	1.000811
376.833254	1.000704
377.219367	0.999121
377.605417	0.999852
377.991404	1.000104
378.377329	0.999481
378.763191	0.999960
379.148991	1.000932
379.534727	0.999697
379.920402	0.999682
380.306013	0.999130
380.691563	1.000279
381.077049	0.999343
381.462474	0.999208
381.847835	0.999803
382.233134	0.999242
382.618371	0.999259
383.003545	1.000019
383.388657	0.999062
383.773706	1.000298
384.158693	0.999526
384.543618	0.999379
384.928480	1.000445
385.313280	0.998887
385.698017	0.999717
386.082692	1.000537
386.467305	1.000199
386.851856	0.999969
387.236344	0.999452
387.620770	0.998275
388.005133	1.000358
388.389435	1.000343
388.773674	0.999872
389.157851	1.000392
389.541965	1.000898
389.926018	0.999498
390.310008	1.000888
390.693936	0.999247
391.077802	1.000877
391.461606	1.000510
391.845348	0.999849
392.229027	1.000384
392.612645	1.000577
392.996200	1.001666
393.379694	0.999901
393.763125	1.000658
394.146494	1.000950
394.529801	0.999884
394.913047	1.000211
395.296230	1.000220
395.679351	0.999810
396.062410	0.999716
396.445408	1.000868
396.828343	1.000488
397.211217	0.999581
397.594028	1.000936
397.976778	0.999797
398.359466	1.000672
398.742092	0.999644
399.124656	1.000361
399.507158	1.000657
399.889598	0.999920
400.271977	1.000077
400.654294	1.000609
401.036549	1.000058
401.418742	1.000623
401.800874	0.999750
402.182944	1.000139
402.564952	0.999325
402.946898	1.000728
403.328783	1.000148
403.710606	1.000932
404.092367	0.999829
404.474067	1.000163
404.855705	0.999784
405.237282	1.000267
405.618797	1.000203
406.000250	0.998875
406.381642	1.000191
406.762972	1.000187
407.144240	1.000786
407.525447	1.000581
407.906593	0.999782
408.287677	1.000098
408.668700	1.000503
409.049661	1.000020
409.430560	0.999843
409.811399	0.999446
410.192176	0.999478
410.572891	0.999193
410.953545	0.999315
411.334138	0.999213
411.714669	1.000726
412.095139	0.999662
412.475547	1.000927
412.855894	1.000393
413.236180	1.000811
413.616405	1.000585
413.996568	1.000473
414.376670	1.000603
414.756711	0.999794
415.136691	0.999335
415.516609	0.999818
415.896466	0.999831
416.276262	0.998855
416.655997	1.000262
417.035670	0.999067
417.415283	0.999912
417.794834	0.999564
418.174324	0.999990
418.553753	1.000646
418.933121	1.000050
419.312428	1.000186
419.691674	0.999837
420.070859	1.000059
420.449983	1.000186
420.829045	0.999937
421.208047	1.000737
421.586988	1.000922
421.965867	1.000479
422.344686	1.000707
422.723444	0.999805
423.102141	1.000778
423.480777	1.000219
423.859352	0.999860
424.237866	0.999772
424.616319	1.000268
424.994712	1.000218
425.373044	1.000474
425.751314	1.000523
426.129524	1.000043
426.507673	1.000706
426.885762	1.000729
427.263789	0.999952
427.641756	1.000881
428.019662	0.999987
428.397508	0.999941
428.775292	0.999214
429.153016	0.999706
429.530679	1.000246
429.908282	1.000797
430.285824	1.000622
430.663305	0.999796
431.040726	1.000740
431.418086	1.002163
431.795385	1.000858
432.172624	0.999507
432.549802	1.000397
432.926920	1.000956
433.303977	1.000299
433.680974	1.000553
434.057910	1.000493
434.434786	1.000638
434.811601	1.000489
435.188355	0.999727
435.565050	1.000465
435.941683	1.000030
436.318257	1.001160
436.694770	0.999674
437.071222	1.000852
437.447614	1.000798
437.823946	1.000538
438.200218	1.000274
438.576429	1.000435
438.952580	1.000603
439.328670	0.999515
439.704700	1.000849
440.080670	1.000118
440.456580	1.000259
440.832429	0.999621
441.208218	1.000167
441.583947	0.999899
441.959616	1.000644
442.335224	1.000074
442.710773	1.000313
443.086261	1.000681
443.461689	0.999830
443.837057	1.000550
444.212365	1.000592
444.587612	1.000573
444.962800	1.000067
445.337927	1.000889
445.712995	1.001016
446.088002	1.000980
446.462949	1.000195
446.837837	1.000890
447.212664	1.000460
447.587431	1.000901
447.962139	1.000468
448.336786	1.000544
448.711374	1.001016
449.085901	1.000299
449.460369	1.000245
449.834776	1.000363
450.209124	1.001123
450.583412	0.999841
450.957640	0.999905
451.331808	0.999866
451.705917	0.999714
452.079965	1.000146
452.453954	1.000511
452.827883	0.999978
453.201752	1.000388
453.575562	1.000555
453.949311	1.000939
454.323001	1.000004
454.696632	1.000023
455.070202	1.000354
455.443713	0.999416
455.817164	1.000747
456.190556	1.000305
456.563888	1.000345
456.937160	1.000352
457.310373	0.999877
457.683526	0.999719
458.056619	0.999735
458.429653	1.000657
458.802628	0.999932
459.175542	1.000298
459.548398	0.999846
459.921194	1.000044
460.293930	0.999696
460.666607	0.999652
461.039224	0.998637
461.411782	1.000830
461.784280	0.999647
462.156719	1.001102
462.529099	1.001330
462.901419	1.000729
463.273680	0.999451
463.645882	1.000181
464.018024	0.999570
464.390106	1.000249
464.762130	1.000347
465.134094	1.000436
465.505999	1.000477
465.877845	0.999477
466.249631	1.000985
466.621358	1.000170
466.993026	1.000089
467.364634	1.000553
467.736184	1.000778
468.107674	1.000392
468.479105	0.999446
468.850477	1.000159
469.221790	1.001103
469.593043	1.000707
469.964238	1.000911
470.335373	1.000225
470.706449	1.000224
471.077467	1.000515
471.448425	1.000623
471.819324	1.000591
472.190164	1.000137
472.560945	1.000454
472.931667	0.999523
473.302330	0.999302
473.672934	1.000734
474.043479	1.000044
474.413965	0.999660
474.784393	1.000789
475.154761	1.000388
475.525070	0.999942
475.895321	1.000869
476.265513	0.999940
476.635645	1.000605
477.005719	1.000262
477.375734	1.000812
477.745691	0.999966
478.115588	1.000485
478.485427	1.000313
478.855207	1.000050
479.224928	1.000640
479.594591	1.000170
479.964194	1.000567
480.333739	1.000351
480.703226	0.999987
481.072653	1.000929
481.442022	1.001329
481.811333	0.999898
482.180584	1.000561
482.549777	1.000140
482.918912	1.000893
483.287988	1.000335
483.657005	1.000449
484.025964	1.000674
484.394864	1.000930
484.763706	1.000963
485.132489	1.000846
485.501213	1.000737
485.869879	1.000175
486.238487	1.001056
486.607036	1.000783
486.975527	1.000216
487.343959	1.000778
487.712333	0.999959
488.080648	1.000994
488.448905	1.000366
488.817104	1.001065
489.185244	1.000903
489.553326	1.000923
489.921350	1.000269
490.289315	1.001132
490.657222	1.001131
491.025070	1.000807
491.392861	1.000299
491.760593	1.001508
492.128267	1.000697
492.495883	1.000855
492.863440	1.000640
493.230939	1.000722
493.598380	1.000722
493.965763	0.999981
494.333088	1.000808
494.700354	1.000055
495.067563	1.000035
495.434713	1.000097
495.801805	1.001294
496.168839	1.001004
496.535815	1.000365
496.902733	1.000118
497.269593	1.000514
497.636395	1.000474
498.003139	1.000562
498.369825	1.001234
498.736453	1.000176
499.103023	0.999750
499.469535	0.999968
499.835989	0.999376
500.202385	1.000747
500.568723	1.000107
500.935003	1.000479
501.301226	1.000800
501.667390	0.999973
502.033497	1.000268
502.399546	1.001387
502.765537	1.000574
503.131470	1.000410
503.497345	1.000010
503.863163	1.000416
504.228923	1.000138
504.594625	1.001113
504.960269	1.001213
505.325856	1.001150
505.691385	0.999992
506.056856	1.000285
506.422270	1.000014
506.787625	1.000223
507.152924	1.000006
507.518164	1.000585
507.883347	1.000278
508.248472	1.000119
508.613540	1.000865
508.978550	1.000222
509.343503	0.999995
509.708398	1.000736
510.073236	1.000597
510.438016	1.000626
510.802738	1.000776
511.167403	1.000640
511.532010	1.000500
511.896561	0.999860
512.261053	1.001101
512.625488	1.000026
512.989866	1.000400
513.354186	1.000020
513.718449	1.000554
514.082655	1.000229
514.446803	1.000699
514.810894	0.999917
515.174927	1.000531
515.538904	1.000534
515.902822	1.000618
516.266684	1.000689
516.630488	1.000896
516.994235	0.999988
517.357925	1.000110
517.721558	1.000090
518.085133	1.000377
518.448651	1.001316
518.812112	1.000295
519.175516	1.000021
519.538863	1.000231
519.902152	1.000145
520.265385	1.000438
520.628560	1.000182
520.991678	1.000280
521.354739	1.000694
521.717743	1.000140
522.080690	1.000724
522.443580	0.999839
522.806413	1.000933
523.169189	1.000199
523.531908	0.999751
523.894569	1.000758
524.257174	1.000814
524.619722	1.000908
524.982213	1.000479
525.344647	1.000890
525.707025	0.999658
526.069345	1.000078
526.431608	0.999793
526.793815	1.000622
527.155964	1.000389
527.518057	1.000372
527.880093	1.000409
528.242072	1.000522
528.603995	1.000178
528.965860	1.001271
529.327669	1.000691
529.689421	1.000441
530.051117	1.001250
530.412755	0.999988
530.774337	1.000406
531.135862	1.000558
531.497331	1.000749
531.858743	1.000765
532.220098	1.000722
532.581396	1.000053
532.942638	1.000780
533.303824	1.000578
533.664953	1.000727
534.026025	1.000117
534.387040	1.000573
534.747999	1.000620
535.108902	1.000446
535.469748	1.000241
535.830537	1.000615
536.191270	1.000510
536.551947	1.000439
536.912567	1.000259
537.273131	1.001282
537.633638	0.999747
537.994089	1.000925
538.354483	0.999830
538.714821	1.001203
539.075103	1.000381
539.435328	1.000485
539.795497	1.000580
540.155609	1.000081
540.515665	1.000470
540.875665	1.000285
541.235609	1.000389
541.595496	1.000030
541.955328	0.999746
542.315102	1.000322
542.674821	1.001096
543.034483	0.999634
543.394090	1.000009
543.753640	1.000356
544.113134	0.999958
544.472571	1.000668
544.831953	1.000448
545.191278	1.000074
545.550548	1.000524
545.909761	1.000212
546.268918	1.000444
546.628019	1.000954
546.987064	0.999657
547.346053	1.000633
547.704986	1.000579
548.063863	1.000513
548.422684	1.000823
548.781449	1.000991
549.140158	0.999778
549.498811	1.000613
549.857408	1.000385
550.215949	1.000533
550.574434	0.999901
550.932864	1.000429
551.291237	1.000678
551.649555	1.000562
552.007817	1.000088
552.366022	1.000585
552.724173	1.000339
553.082267	1.000693
553.440305	0.999563
553.798288	1.000398
554.156215	1.000081
554.514086	1.000788
554.871902	0.999918
555.229661	1.000002
555.587365	1.000107
555.945014	1.001034
556.302606	1.000072
556.660143	1.000113
557.017625	0.999498
557.375050	0.999914
557.732421	0.999956
558.089735	1.000676
558.446994	1.000641
558.804197	1.000419
559.161345	1.000494
559.518437	1.001588
559.875474	1.000092
560.232455	1.000175
560.589381	1.000434
560.946251	0.999835
561.303065	1.000211
561.659825	1.000605
562.016528	0.999660
562.373177	1.000684
562.729770	1.000187
563.086307	1.000781
563.442789	1.000306
563.799216	1.000596
564.155587	0.999552
564.511904	1.000040
564.868164	0.999173
565.224370	1.000215
565.580520	1.000453
565.936615	0.999831
566.292654	0.999755
566.648638	1.000111
567.004567	0.999222
567.360441	1.000641
567.716260	1.000749
568.072023	1.000220
568.427732	1.000049
568.783385	1.000621
569.138982	1.000282
569.494525	1.000094
569.850013	1.000401
570.205445	1.000816
570.560823	0.999874
570.916145	0.999296
571.271412	1.000222
571.626625	1.000106
571.981782	1.000107
572.336884	1.000860
572.691931	1.000495
573.046923	1.000018
573.401860	1.000560
573.756743	1.000354
574.111570	1.000803
574.466342	1.001106
574.821059	1.000819
575.175722	1.000118
575.530330	1.000526
575.884882	0.999925
576.239380	1.000831
576.593823	1.000636
576.948211	1.000122
577.302544	0.999635
577.656823	1.000533
578.011047	1.000400
578.365216	1.000310
578.719330	0.999469
579.073389	1.000948
579.427394	1.000380
579.781344	1.000425
580.135239	1.000045
580.489080	1.000257
580.842866	1.000476
581.196597	0.999676
581.550273	0.999902
581.903895	1.000408
582.257463	1.000630
582.610975	1.000300
582.964434	1.000596
583.317837	1.001841
583.671186	1.000294
584.024481	0.999839
584.377721	0.999736
584.730906	1.000539
585.084037	1.000130
585.437113	0.999979
585.790135	0.999735
586.143103	0.999593
586.496016	1.001226
586.848874	1.000793
587.201679	0.999907
587.554428	1.000349
587.907124	1.000034
588.259765	1.000286
588.612352	1.001108
588.964884	1.000840
589.317362	1.000999
589.669786	1.000864
590.022155	1.000585
590.374470	1.000741
590.726731	0.999995
591.078937	0.999901
591.431090	1.000526
591.783188	1.000216
592.135232	1.000212
592.487222	1.000596
592.839157	0.999897
593.191038	1.000943
593.542866	1.000033
593.894639	1.000247
594.246358	0.999875
594.598022	1.000282
594.949633	1.000968
595.301190	1.000124
595.652692	1.000922
596.004141	1.001480
596.355535	1.000409
596.706876	0.999828
597.058162	1.000423
597.409395	1.000488
597.760573	1.000453
598.111698	1.000307
598.462768	1.000083
598.813785	0.999701
599.164748	1.000129
599.515657	0.999326
599.866511	1.000257
600.217312	1.000265
600.568060	1.000193
600.918753	1.000306
601.269392	1.000194
601.619978	1.000128
601.970510	1.000293
602.320988	1.000810
602.671412	0.999815
603.021783	1.000147
603.372100	1.001563
603.722363	1.000888
604.072572	1.000676
604.422728	1.001468
604.772830	1.000331
605.122878	1.000911
605.472872	1.000307
605.822813	1.000320
606.172701	1.000395
606.522534	1.001416
606.872314	1.000180
607.222041	0.999978
607.571714	1.000845
607.921333	0.999678
608.270899	1.000384
608.620411	1.000180
608.969870	1.000197
609.319276	1.000255
609.668627	1.000454
610.017926	1.000253
610.367171	1.000543
610.716362	0.999957
611.065500	1.000303
611.414585	1.000076
611.763616	1.000498
612.112594	1.000348
612.461518	1.000351
612.810389	1.000063
613.159207	1.000424
613.507971	0.999995
613.856682	1.000216
614.205340	1.000484
614.553945	1.000102
614.902496	1.000048
615.250994	1.000882
615.599439	1.000663
615.947830	1.000781
616.296169	1.000166
616.644454	0.999598
616.992686	1.000641
617.340864	1.000139
617.688990	1.000248
618.037063	1.000293
618.385082	1.000381
618.733048	1.000728
619.080961	1.001005
619.428821	1.000680
619.776628	0.999317
620.124382	1.000113
620.472083	0.999070
620.819731	1.001035
621.167326	1.000699
621.514868	1.000315
621.862357	0.999842
622.209793	1.000670
622.557176	0.999478
622.904506	1.000036
623.251783	0.999672
623.599007	0.999954
623.946179	1.000089
624.293297	1.000157
624.640363	1.000161
624.987376	0.999061
625.334336	1.000580
625.681243	1.000211
626.028097	1.000650
626.374899	1.000556
626.721647	1.000431
627.068343	1.001206
627.414987	1.000051
627.761577	1.000095
628.108115	1.000133
628.454600	1.000385
628.801032	0.999774
629.147412	1.000711
629.493739	1.000037
629.840014	0.999870
630.186236	1.000537
630.532405	1.000236
630.878521	0.999919
631.224585	1.000283
631.570597	0.999709
631.916556	1.000751
632.262462	1.000510
632.608316	1.001022
632.954117	0.999985
633.299866	1.000416
633.645562	1.000841
633.991206	1.000632
634.336797	1.000260
634.682336	1.000429
635.027823	1.000176
635.373257	1.001000
635.718639	1.000635
636.063968	1.000106
636.409245	1.000041
636.754470	1.000632
637.099642	1.000655
637.444762	1.000695
637.789829	1.000309
638.134845	0.999966
638.479808	0.999976
638.824719	1.000123
639.169577	0.999711
639.514383	1.000037
639.859137	1.000104
640.203839	1.000618
640.548489	0.999951
640.893086	1.000830
641.237632	1.000696
641.582125	0.999274
641.926566	0.999637
642.270955	1.000035
642.615292	1.000452
642.959576	1.000169
643.303809	1.000103
643.647990	0.999945
643.992118	1.000219
644.336195	1.000823
644.680219	0.999494
645.024192	1.000485
645.368112	0.999671
645.711981	1.000531
646.055797	1.000110
646.399562	1.000774
646.743274	0.999590
647.086935	1.000706
647.430544	0.999880
647.774101	1.000574
648.117606	0.999893
648.461059	0.999670
648.804460	0.999683
649.147810	0.999609
649.491108	1.000319
649.834354	0.999723
650.177548	1.000135
650.520690	1.000205
650.863781	1.000353
651.206820	1.000155
651.549807	1.000544
651.892742	1.000501
652.235626	0.999884
652.578458	0.999540
652.921238	0.999352
653.263967	0.999916
653.606644	1.001023
653.949269	1.000203
654.291843	0.999404
654.634365	0.999568
654.976836	1.000340
655.319255	0.999827
655.661622	1.000516
656.003938	0.999396
656.346203	0.999818
656.688416	1.000340
657.030577	1.000629
657.372687	0.999595
657.714746	0.999760
658.056753	0.999967
658.398708	0.999786
658.740612	1.000071
659.082465	0.999604
659.424266	1.000363
659.766016	0.999190
660.107715	0.999611
660.449362	0.999394
660.790958	1.000490
661.132503	0.998831
661.473996	0.999408
661.815438	0.999886
662.156829	0.999651
662.498168	1.000536
662.839456	0.999367
663.180693	1.000760
663.521879	1.000080
663.863013	1.001135
664.204097	1.000573
664.545129	1.000352
664.886110	1.000630
665.227040	0.999167
665.567918	1.000203
665.908746	0.999688
666.249522	0.999108
666.590248	0.999611
666.930922	1.001186
667.271545	0.999283
667.612118	1.000106
667.952639	0.999706
668.293109	0.999967
668.633528	0.999407
668.973896	0.999626
669.314213	0.999193
669.654480	0.999696
669.994695	0.999632
670.334859	1.000000
670.674973	0.999418
671.015035	0.999909
671.355047	0.999559
671.695008	0.999392
672.034918	0.998573
672.374777	0.999053
672.714585	0.999539
673.054342	0.999796
673.394049	0.998899
673.733705	0.998793
674.073310	0.998616
674.412864	0.999075
674.752368	0.999041
675.091820	0.999840
675.431223	0.999342
675.770574	0.998863
676.109875	0.998328
676.449125	0.998561
676.788324	0.998476
677.127473	0.999802
677.466571	0.998274
677.805619	0.998976
678.144616	0.998515
678.483562	0.998387
678.822458	0.999238
679.161303	0.999493
679.500098	0.997907
679.838842	0.999766
680.177535	0.999528
680.516179	0.998813
680.854771	0.998966
681.193314	0.999162
681.531805	0.998584
681.870247	0.997532
682.208638	0.997917
682.546978	0.996576
682.885268	0.997899
683.223508	0.998156
683.561697	0.997472
683.899836	0.998191
684.237925	0.998279
684.575963	0.997617
684.913951	0.996708
685.251889	0.997270
685.589776	0.997072
685.927614	0.997634
686.265401	0.996707
686.603137	0.996217
686.940824	0.996572
687.278460	0.996392
687.616046	0.996766
687.953582	0.995471
688.291068	0.995498
688.628504	0.995663
