Dividing Wavelength (nm)	Counts (n)	Blue Motor Position (mm): 0.000000	Red Motor Position (mm): 48.900000	
326.493990	1.001392
326.888308	1.001392
327.282561	1.001392
327.676750	1.000558
328.070874	0.999116
328.464933	0.999436
328.858929	0.998855
329.252859	1.001020
329.646726	0.999003
330.040528	1.000673
330.434265	1.000109
330.827938	1.000206
331.221547	1.000517
331.615091	1.000499
332.008571	1.000866
332.401986	1.000582
332.795338	1.001814
333.188625	0.999266
333.581847	1.000177
333.975006	0.999424
334.368100	0.998931
334.761129	0.999560
335.154095	1.001355
335.546996	0.999189
335.939833	0.998820
336.332606	0.999016
336.725315	1.000422
337.117960	1.001632
337.510540	0.999980
337.903056	1.001060
338.295508	0.999775
338.687896	1.001254
339.080220	1.000743
339.472480	1.000884
339.864676	1.000573
340.256807	1.001023
340.648875	1.000332
341.040879	1.001542
341.432818	0.999469
341.824694	1.000361
342.216506	1.000360
342.608253	1.000857
342.999937	0.998971
343.391557	1.000485
343.783113	0.999213
344.174605	0.999323
344.566033	1.000944
344.957397	0.999519
345.348697	1.000040
345.739934	1.000754
346.131106	1.000014
346.522215	1.000530
346.913260	1.000414
347.304241	1.000137
347.695159	0.999476
348.086012	0.998417
348.476802	0.999917
348.867528	1.000010
349.258191	0.999628
349.648789	0.999011
350.039324	0.999974
350.429796	1.000171
350.820203	1.001143
351.210548	0.999788
351.600828	0.999382
351.991045	1.000483
352.381198	0.999553
352.771288	1.000175
353.161314	0.999852
353.551276	1.001060
353.941175	1.000795
354.331010	1.000023
354.720782	1.000160
355.110490	1.000034
355.500135	1.000450
355.889717	1.000615
356.279235	0.999728
356.668689	1.000578
357.058080	1.000688
357.447408	1.000449
357.836672	1.001437
358.225873	0.999967
358.615010	1.000776
359.004084	0.999835
359.393095	0.999957
359.782043	1.000643
360.170927	1.002617
360.559748	1.001471
360.948505	1.000098
361.337199	1.000064
361.725830	0.999919
362.114398	1.000891
362.502903	1.000897
362.891344	1.000956
363.279722	0.998196
363.668037	1.000694
364.056289	1.001968
364.444478	1.001352
364.832603	1.000671
365.220665	0.999550
365.608665	1.000378
365.996601	1.000837
366.384474	1.000426
366.772284	0.999355
367.160031	0.999495
367.547715	0.998956
367.935336	0.999420
368.322893	0.999760
368.710388	0.999796
369.097820	1.000120
369.485189	0.999603
369.872495	0.999591
370.259738	0.999577
370.646918	1.001430
371.034035	1.000011
371.421090	1.000705
371.808081	1.000475
372.195010	1.000125
372.581875	1.000490
372.968678	1.000670
373.355418	1.000247
373.742096	0.999652
374.128710	1.000546
374.515262	0.999418
374.901751	1.000220
375.288177	1.000160
375.674540	1.002276
376.060841	0.999289
376.447079	1.000555
376.833254	1.000469
377.219367	0.999714
377.605417	1.000595
377.991404	1.000524
378.377329	0.999967
378.763191	1.000412
379.148991	1.001200
379.534727	1.000416
379.920402	1.000064
380.306013	1.000729
380.691563	1.001754
381.077049	1.000232
381.462474	1.001032
381.847835	1.000873
382.233134	1.000867
382.618371	1.000473
383.003545	1.000206
383.388657	1.000387
383.773706	1.001099
384.158693	1.000798
384.543618	1.001356
384.928480	1.001053
385.313280	1.000413
385.698017	1.001570
386.082692	1.002173
386.467305	1.001102
386.851856	1.000450
387.236344	1.000379
387.620770	0.999996
388.005133	1.001515
388.389435	1.001898
388.773674	1.001328
389.157851	1.000552
389.541965	1.000345
389.926018	1.000110
390.310008	1.001374
390.693936	1.001224
391.077802	1.001158
391.461606	1.000378
391.845348	1.001213
392.229027	1.002368
392.612645	1.000820
392.996200	1.002773
393.379694	1.000584
393.763125	1.002209
394.146494	1.001606
394.529801	1.000626
394.913047	1.001414
395.296230	1.001458
395.679351	1.000624
396.062410	1.001009
396.445408	1.001013
396.828343	1.000025
397.211217	1.002086
397.594028	1.002361
397.976778	1.001303
398.359466	1.000080
398.742092	1.000371
399.124656	1.000924
399.507158	1.000848
399.889598	1.001210
400.271977	1.001376
400.654294	1.000981
401.036549	1.001800
401.418742	1.002700
401.800874	1.000786
402.182944	1.001312
402.564952	1.000680
402.946898	1.002758
403.328783	1.001287
403.710606	1.001557
404.092367	1.000712
404.474067	1.000679
404.855705	1.001566
405.237282	1.001563
405.618797	1.001254
406.000250	1.000390
406.381642	1.001280
406.762972	1.000663
407.144240	1.001437
407.525447	1.001832
407.906593	1.001247
408.287677	1.001924
408.668700	1.001849
409.049661	1.000301
409.430560	1.000958
409.811399	1.001260
410.192176	1.001904
410.572891	1.001547
410.953545	1.000474
411.334138	0.999921
411.714669	1.001864
412.095139	1.001160
412.475547	1.002284
412.855894	1.001407
413.236180	1.001710
413.616405	1.001889
413.996568	1.002367
414.376670	1.001229
414.756711	1.001663
415.136691	1.001978
415.516609	1.001578
415.896466	1.000875
416.276262	1.000040
416.655997	1.001803
417.035670	1.000781
417.415283	1.001990
417.794834	1.001286
418.174324	1.001490
418.553753	1.002164
418.933121	1.001264
419.312428	1.001684
419.691674	1.001449
420.070859	1.001009
420.449983	1.001838
420.829045	1.001187
421.208047	1.001866
421.586988	1.001953
421.965867	1.001730
422.344686	1.002201
422.723444	1.001223
423.102141	1.001751
423.480777	1.002268
423.859352	1.001384
424.237866	1.001760
424.616319	1.002269
424.994712	1.002111
425.373044	1.001465
425.751314	1.001407
426.129524	1.000803
426.507673	1.001872
426.885762	1.002429
427.263789	1.001399
427.641756	1.001538
428.019662	1.002719
428.397508	1.001485
428.775292	1.001832
429.153016	1.001774
429.530679	1.001788
429.908282	1.002742
430.285824	1.001012
430.663305	1.002081
431.040726	1.000735
431.418086	1.002523
431.795385	1.002011
432.172624	1.000799
432.549802	1.002050
432.926920	1.002393
433.303977	1.000945
433.680974	1.001604
434.057910	1.001614
434.434786	1.002096
434.811601	1.001054
435.188355	1.001516
435.565050	1.001056
435.941683	1.001639
436.318257	1.002571
436.694770	1.001853
437.071222	1.001855
437.447614	1.001660
437.823946	1.001828
438.200218	1.002108
438.576429	1.001968
438.952580	1.001856
439.328670	1.001288
439.704700	1.002838
440.080670	1.002272
440.456580	1.001964
440.832429	1.001347
441.208218	1.002440
441.583947	1.001795
441.959616	1.001939
442.335224	1.001409
442.710773	1.002051
443.086261	1.000909
443.461689	1.001054
443.837057	1.001438
444.212365	1.001572
444.587612	1.002261
444.962800	1.001458
445.337927	1.002014
445.712995	1.002762
446.088002	1.002730
446.462949	1.001933
446.837837	1.002585
447.212664	1.001700
447.587431	1.002677
447.962139	1.001405
448.336786	1.002375
448.711374	1.002770
449.085901	1.001167
449.460369	1.001757
449.834776	1.002032
450.209124	1.002676
450.583412	1.001594
450.957640	1.001397
451.331808	1.001731
451.705917	1.001868
452.079965	1.001793
452.453954	1.002183
452.827883	1.002361
453.201752	1.002264
453.575562	1.002552
453.949311	1.001730
454.323001	1.001488
454.696632	1.001536
455.070202	1.001464
455.443713	1.002104
455.817164	1.001936
456.190556	1.001572
456.563888	1.001197
456.937160	1.002202
457.310373	1.001709
457.683526	1.001653
458.056619	1.002432
458.429653	1.002397
458.802628	1.001511
459.175542	1.001720
459.548398	1.001591
459.921194	1.002016
460.293930	1.001740
460.666607	1.000924
461.039224	1.001101
461.411782	1.001014
461.784280	1.001683
462.156719	1.002630
462.529099	1.002572
462.901419	1.002138
463.273680	1.001898
463.645882	1.001621
464.018024	1.002100
464.390106	1.001936
464.762130	1.002667
465.134094	1.002112
465.505999	1.002215
465.877845	1.001321
466.249631	1.002596
466.621358	1.002031
466.993026	1.002583
467.364634	1.001867
467.736184	1.002484
468.107674	1.001667
468.479105	1.001689
468.850477	1.002597
469.221790	1.002489
469.593043	1.002793
469.964238	1.002631
470.335373	1.002344
470.706449	1.002564
471.077467	1.002258
471.448425	1.002226
471.819324	1.002519
472.190164	1.002214
472.560945	1.002492
472.931667	1.002490
473.302330	1.001719
473.672934	1.002455
474.043479	1.002673
474.413965	1.001959
474.784393	1.002537
475.154761	1.002366
475.525070	1.001511
475.895321	1.002392
476.265513	1.001611
476.635645	1.002194
477.005719	1.002350
477.375734	1.001439
477.745691	1.002602
478.115588	1.002236
478.485427	1.002388
478.855207	1.002009
479.224928	1.002496
479.594591	1.002489
479.964194	1.002160
480.333739	1.002157
480.703226	1.002694
481.072653	1.003245
481.442022	1.003117
481.811333	1.001557
482.180584	1.002472
482.549777	1.001786
482.918912	1.001796
483.287988	1.002322
483.657005	1.001361
484.025964	1.002985
484.394864	1.002337
484.763706	1.002657
485.132489	1.002602
485.501213	1.002476
485.869879	1.002499
486.238487	1.002516
486.607036	1.002404
486.975527	1.002460
487.343959	1.002174
487.712333	1.002639
488.080648	1.002404
488.448905	1.002578
488.817104	1.002349
489.185244	1.002505
489.553326	1.002850
489.921350	1.001969
490.289315	1.002187
490.657222	1.002646
491.025070	1.002436
491.392861	1.002626
491.760593	1.002923
492.128267	1.002368
492.495883	1.002243
492.863440	1.002478
493.230939	1.002589
493.598380	1.001788
493.965763	1.002171
494.333088	1.002772
494.700354	1.002313
495.067563	1.002164
495.434713	1.002158
495.801805	1.002768
496.168839	1.002181
496.535815	1.002029
496.902733	1.001859
497.269593	1.002126
497.636395	1.002832
498.003139	1.002412
498.369825	1.002815
498.736453	1.003022
499.103023	1.001508
499.469535	1.002520
499.835989	1.002122
500.202385	1.002312
500.568723	1.002794
500.935003	1.002246
501.301226	1.002183
501.667390	1.001882
502.033497	1.002456
502.399546	1.003161
502.765537	1.001381
503.131470	1.001975
503.497345	1.001854
503.863163	1.002901
504.228923	1.002551
504.594625	1.002505
504.960269	1.003437
505.325856	1.002702
505.691385	1.002329
506.056856	1.002325
506.422270	1.002099
506.787625	1.002541
507.152924	1.001992
507.518164	1.001632
507.883347	1.002351
508.248472	1.002254
508.613540	1.002093
508.978550	1.002733
509.343503	1.001593
509.708398	1.002735
510.073236	1.002665
510.438016	1.002650
510.802738	1.001875
511.167403	1.003007
511.532010	1.002393
511.896561	1.001772
512.261053	1.003025
512.625488	1.001678
512.989866	1.002562
513.354186	1.001819
513.718449	1.002059
514.082655	1.002437
514.446803	1.001632
514.810894	1.002604
515.174927	1.002130
515.538904	1.002097
515.902822	1.001807
516.266684	1.002058
516.630488	1.002760
516.994235	1.001855
517.357925	1.002549
517.721558	1.002093
518.085133	1.002114
518.448651	1.002709
518.812112	1.003008
519.175516	1.002284
519.538863	1.002651
519.902152	1.002133
520.265385	1.002653
520.628560	1.002038
520.991678	1.002691
521.354739	1.002529
521.717743	1.002538
522.080690	1.002044
522.443580	1.001638
522.806413	1.002134
523.169189	1.002376
523.531908	1.002185
523.894569	1.002881
524.257174	1.002277
524.619722	1.002690
524.982213	1.002034
525.344647	1.002453
525.707025	1.002041
526.069345	1.001855
526.431608	1.001758
526.793815	1.002573
527.155964	1.002374
527.518057	1.002221
527.880093	1.002903
528.242072	1.002091
528.603995	1.001900
528.965860	1.003892
529.327669	1.002549
529.689421	1.002395
530.051117	1.002584
530.412755	1.002231
530.774337	1.002547
531.135862	1.002170
531.497331	1.002041
531.858743	1.002716
532.220098	1.002660
532.581396	1.002446
532.942638	1.002433
533.303824	1.002101
533.664953	1.003043
534.026025	1.001602
534.387040	1.001872
534.747999	1.002111
535.108902	1.002544
535.469748	1.002197
535.830537	1.001681
536.191270	1.002764
536.551947	1.002178
536.912567	1.002302
537.273131	1.002535
537.633638	1.002097
537.994089	1.002254
538.354483	1.002271
538.714821	1.002553
539.075103	1.002435
539.435328	1.002688
539.795497	1.002228
540.155609	1.002016
540.515665	1.002928
540.875665	1.002284
541.235609	1.002218
541.595496	1.002007
541.955328	1.001763
542.315102	1.002751
542.674821	1.002093
543.034483	1.001488
543.394090	1.001509
543.753640	1.002715
544.113134	1.002235
544.472571	1.002747
544.831953	1.002602
545.191278	1.002558
545.550548	1.003227
545.909761	1.002131
546.268918	1.002697
546.628019	1.002381
546.987064	1.002276
547.346053	1.002252
547.704986	1.003053
548.063863	1.002307
548.422684	1.002217
548.781449	1.002839
549.140158	1.002136
549.498811	1.002664
549.857408	1.002865
550.215949	1.002688
550.574434	1.002195
550.932864	1.002840
551.291237	1.002739
551.649555	1.002589
552.007817	1.002442
552.366022	1.001682
552.724173	1.002214
553.082267	1.002884
553.440305	1.001395
553.798288	1.002390
554.156215	1.002522
554.514086	1.002402
554.871902	1.002457
555.229661	1.001931
555.587365	1.002740
555.945014	1.002987
556.302606	1.002389
556.660143	1.002520
557.017625	1.002619
557.375050	1.001808
557.732421	1.002145
558.089735	1.002676
558.446994	1.002747
558.804197	1.002910
559.161345	1.002984
559.518437	1.003557
559.875474	1.002149
560.232455	1.002448
560.589381	1.002400
560.946251	1.001572
561.303065	1.002329
561.659825	1.002283
562.016528	1.001607
562.373177	1.001841
562.729770	1.002176
563.086307	1.002616
563.442789	1.001989
563.799216	1.002266
564.155587	1.002156
564.511904	1.001553
564.868164	1.001624
565.224370	1.002520
565.580520	1.002907
565.936615	1.001994
566.292654	1.002061
566.648638	1.002140
567.004567	1.002176
567.360441	1.002236
567.716260	1.002841
568.072023	1.002104
568.427732	1.002430
568.783385	1.002507
569.138982	1.002122
569.494525	1.001722
569.850013	1.002174
570.205445	1.002158
570.560823	1.002721
570.916145	1.002649
571.271412	1.002453
571.626625	1.002095
571.981782	1.002381
572.336884	1.002813
572.691931	1.001393
573.046923	1.001599
573.401860	1.002465
573.756743	1.002511
574.111570	1.002495
574.466342	1.002285
574.821059	1.002009
575.175722	1.002175
575.530330	1.001876
575.884882	1.001822
576.239380	1.003046
576.593823	1.002043
576.948211	1.001521
577.302544	1.001698
577.656823	1.001726
578.011047	1.002171
578.365216	1.002001
578.719330	1.001307
579.073389	1.002459
579.427394	1.001898
579.781344	1.002544
580.135239	1.002086
580.489080	1.001843
580.842866	1.001923
581.196597	1.001625
581.550273	1.001432
581.903895	1.002022
582.257463	1.002215
582.610975	1.002278
582.964434	1.002516
583.317837	1.002733
583.671186	1.002273
584.024481	1.001489
584.377721	1.001277
584.730906	1.002166
585.084037	1.001717
585.437113	1.001870
585.790135	1.002111
586.143103	1.001475
586.496016	1.002483
586.848874	1.002114
587.201679	1.001887
587.554428	1.002092
587.907124	1.002188
588.259765	1.002281
588.612352	1.002900
588.964884	1.002377
589.317362	1.002027
589.669786	1.001735
590.022155	1.001908
590.374470	1.001442
590.726731	1.002008
591.078937	1.001449
591.431090	1.001608
591.783188	1.001811
592.135232	1.002081
592.487222	1.002493
592.839157	1.002026
593.191038	1.001968
593.542866	1.001869
593.894639	1.002138
594.246358	1.002104
594.598022	1.001889
594.949633	1.001843
595.301190	1.001766
595.652692	1.001675
596.004141	1.002882
596.355535	1.002002
596.706876	1.001717
597.058162	1.001707
597.409395	1.002393
597.760573	1.001239
598.111698	1.001496
598.462768	1.001458
598.813785	1.001479
599.164748	1.001970
599.515657	1.001884
599.866511	1.001797
600.217312	1.001835
600.568060	1.001643
600.918753	1.002540
601.269392	1.002011
601.619978	1.001933
601.970510	1.001760
602.320988	1.002190
602.671412	1.001633
603.021783	1.001733
603.372100	1.002295
603.722363	1.001940
604.072572	1.001444
604.422728	1.002386
604.772830	1.001499
605.122878	1.001591
605.472872	1.001424
605.822813	1.000841
606.172701	1.001419
606.522534	1.002100
606.872314	1.001827
607.222041	1.001188
607.571714	1.002168
607.921333	1.001405
608.270899	1.001330
608.620411	1.002208
608.969870	1.001961
609.319276	1.001446
609.668627	1.002774
610.017926	1.001329
610.367171	1.001826
610.716362	1.001725
611.065500	1.001580
611.414585	1.001863
611.763616	1.002127
612.112594	1.001514
612.461518	1.001924
612.810389	1.001419
613.159207	1.002117
613.507971	1.001116
613.856682	1.002145
614.205340	1.001861
614.553945	1.000861
614.902496	1.001695
615.250994	1.001377
615.599439	1.002000
615.947830	1.001380
616.296169	1.002220
616.644454	1.001266
616.992686	1.001674
617.340864	1.001274
617.688990	1.002087
618.037063	1.001868
618.385082	1.001720
618.733048	1.001390
619.080961	1.001987
619.428821	1.001518
619.776628	1.001582
620.124382	1.001341
620.472083	1.000783
620.819731	1.001601
621.167326	1.001691
621.514868	1.001978
621.862357	1.001689
622.209793	1.001562
622.557176	1.000560
622.904506	1.001590
623.251783	1.000570
623.599007	1.001642
623.946179	1.002732
624.293297	1.002005
624.640363	1.001810
624.987376	1.000939
625.334336	1.001264
625.681243	1.001680
626.028097	1.002384
626.374899	1.002011
626.721647	1.001105
627.068343	1.001558
627.414987	1.001726
627.761577	1.001758
628.108115	1.000765
628.454600	1.002404
628.801032	1.001044
629.147412	1.001777
629.493739	1.000475
629.840014	1.001263
630.186236	1.001773
630.532405	1.001351
630.878521	1.001721
631.224585	1.000777
631.570597	1.001898
631.916556	1.001618
632.262462	1.001366
632.608316	1.001423
632.954117	1.001463
633.299866	1.000886
633.645562	1.001368
633.991206	1.001142
634.336797	1.002170
634.682336	1.001724
635.027823	1.001304
635.373257	1.001645
635.718639	1.001051
636.063968	1.001189
636.409245	1.001293
636.754470	1.001632
637.099642	1.002077
637.444762	1.001579
637.789829	1.001614
638.134845	1.000264
638.479808	1.001094
638.824719	1.001501
639.169577	1.001311
639.514383	1.001426
639.859137	1.000187
640.203839	1.001141
640.548489	1.000460
640.893086	1.002261
641.237632	1.001337
641.582125	1.000716
641.926566	1.000015
642.270955	1.001201
642.615292	1.001880
642.959576	1.001327
643.303809	1.001901
643.647990	1.000801
643.992118	1.001216
644.336195	1.001533
644.680219	1.001782
645.024192	1.001411
645.368112	1.000517
645.711981	1.000964
646.055797	1.000707
646.399562	1.000062
646.743274	1.000003
647.086935	1.000764
647.430544	1.000900
647.774101	1.001707
648.117606	1.001047
648.461059	1.000958
648.804460	1.001274
649.147810	1.001344
649.491108	1.001426
649.834354	1.000123
650.177548	1.001546
650.520690	1.001142
650.863781	1.001401
651.206820	1.001343
651.549807	1.000955
651.892742	1.000801
652.235626	1.000576
652.578458	1.001320
652.921238	1.001685
653.263967	1.001505
653.606644	1.001430
653.949269	1.001575
654.291843	1.001479
654.634365	1.000717
654.976836	1.001001
655.319255	1.000698
655.661622	1.001551
656.003938	1.001664
656.346203	1.001505
656.688416	1.002000
657.030577	1.001665
657.372687	1.000966
657.714746	1.001310
658.056753	1.001702
658.398708	1.000647
658.740612	1.001787
659.082465	1.001198
659.424266	1.001206
659.766016	0.999776
660.107715	1.000367
660.449362	1.001373
660.790958	1.000795
661.132503	1.000395
661.473996	1.001401
661.815438	1.001094
662.156829	1.000640
662.498168	1.001059
662.839456	1.000467
663.180693	1.001148
663.521879	1.001457
663.863013	1.002021
664.204097	1.001605
664.545129	1.001786
664.886110	1.000940
665.227040	1.000484
665.567918	1.000502
665.908746	1.001253
666.249522	1.000280
666.590248	1.000979
666.930922	1.000543
667.271545	1.001192
667.612118	1.001245
667.952639	1.000855
668.293109	1.001177
668.633528	1.001130
668.973896	1.001550
669.314213	1.000931
669.654480	1.001133
669.994695	1.000398
670.334859	1.000700
670.674973	1.000979
671.015035	1.001469
671.355047	1.001028
671.695008	1.000765
672.034918	1.000156
672.374777	1.000357
672.714585	1.001313
673.054342	1.001215
673.394049	1.001115
673.733705	0.999251
674.073310	1.001066
674.412864	1.000916
674.752368	1.001575
675.091820	1.001784
675.431223	1.000302
675.770574	1.000910
676.109875	1.000648
676.449125	1.001513
676.788324	0.999906
677.127473	1.001507
677.466571	1.000914
677.805619	1.001293
678.144616	1.000676
678.483562	1.000523
678.822458	1.000302
679.161303	1.001830
679.500098	1.000901
679.838842	1.001148
680.177535	1.001344
680.516179	1.000936
680.854771	1.001204
681.193314	1.000979
681.531805	1.001064
681.870247	1.000363
682.208638	1.000867
682.546978	1.000034
682.885268	1.000498
683.223508	1.001195
683.561697	1.000597
683.899836	1.000646
684.237925	1.001156
684.575963	1.000684
684.913951	1.000045
685.251889	1.001061
685.589776	1.000039
685.927614	1.000456
686.265401	1.000854
686.603137	1.000502
686.940824	1.000574
687.278460	1.000451
687.616046	1.000215
687.953582	0.999249
688.291068	1.000222
688.628504	1.000934
