Dividing Wavelength (nm)	Counts (n)	Blue Motor Position (mm): 0.000000	Red Motor Position (mm): 47.700000	
326.493990	1.000549
326.888308	1.000549
327.282561	1.000549
327.676750	0.999810
328.070874	0.999118
328.464933	0.999265
328.858929	0.998558
329.252859	0.998714
329.646726	0.999175
330.040528	0.999058
330.434265	0.998422
330.827938	1.000583
331.221547	1.000314
331.615091	1.000031
332.008571	0.999225
332.401986	0.999382
332.795338	0.999434
333.188625	0.998807
333.581847	1.000366
333.975006	0.999172
334.368100	0.998608
334.761129	1.000371
335.154095	1.001046
335.546996	0.998887
335.939833	0.998356
336.332606	0.998740
336.725315	1.001072
337.117960	1.000351
337.510540	0.999442
337.903056	1.000884
338.295508	0.998133
338.687896	0.999746
339.080220	1.000081
339.472480	1.000721
339.864676	1.000317
340.256807	1.000271
340.648875	1.000425
341.040879	1.000551
341.432818	1.001173
341.824694	0.999857
342.216506	1.000720
342.608253	0.998970
342.999937	0.999442
343.391557	1.000154
343.783113	1.000362
344.174605	0.999586
344.566033	1.000519
344.957397	0.998507
345.348697	0.999465
345.739934	0.999220
346.131106	1.000545
346.522215	0.999386
346.913260	0.999795
347.304241	1.000490
347.695159	0.999090
348.086012	0.999267
348.476802	0.998624
348.867528	0.999110
349.258191	0.997305
349.648789	1.000536
350.039324	0.999360
350.429796	0.999720
350.820203	0.999716
351.210548	0.999122
351.600828	0.999674
351.991045	0.999530
352.381198	0.998221
352.771288	0.999771
353.161314	0.998479
353.551276	1.000199
353.941175	0.998805
354.331010	0.999042
354.720782	1.001100
355.110490	1.000224
355.500135	1.000082
355.889717	1.000719
356.279235	0.999152
356.668689	0.999917
357.058080	0.999540
357.447408	1.000515
357.836672	1.000012
358.225873	1.000494
358.615010	0.999060
359.004084	1.000814
359.393095	0.999633
359.782043	1.000449
360.170927	1.001411
360.559748	1.000947
360.948505	0.999908
361.337199	0.999350
361.725830	0.999912
362.114398	0.999450
362.502903	1.001638
362.891344	1.000550
363.279722	0.999867
363.668037	1.001295
364.056289	0.999327
364.444478	1.000685
364.832603	1.000722
365.220665	0.999352
365.608665	0.998699
365.996601	0.998784
366.384474	1.000078
366.772284	0.999937
367.160031	0.998524
367.547715	0.997994
367.935336	1.000081
368.322893	0.999596
368.710388	0.998596
369.097820	0.999908
369.485189	0.999721
369.872495	0.999486
370.259738	0.998385
370.646918	1.001273
371.034035	1.000733
371.421090	0.999923
371.808081	0.999541
372.195010	1.001234
372.581875	1.000817
372.968678	0.999649
373.355418	1.000146
373.742096	0.999053
374.128710	1.000520
374.515262	0.999439
374.901751	0.999381
375.288177	1.000053
375.674540	1.000192
376.060841	0.999239
376.447079	1.000062
376.833254	0.999613
377.219367	1.000125
377.605417	0.999864
377.991404	0.999175
378.377329	0.999409
378.763191	1.000475
379.148991	1.000286
379.534727	1.000897
379.920402	1.000042
380.306013	1.000477
380.691563	1.000688
381.077049	0.999956
381.462474	0.999841
381.847835	0.999701
382.233134	1.000317
382.618371	0.999682
383.003545	1.000530
383.388657	0.999575
383.773706	1.001101
384.158693	1.000136
384.543618	1.000147
384.928480	1.000555
385.313280	0.999672
385.698017	1.000566
386.082692	1.000490
386.467305	0.999421
386.851856	0.999461
387.236344	1.000061
387.620770	0.999319
388.005133	1.000126
388.389435	1.000261
388.773674	1.000280
389.157851	1.001165
389.541965	1.000089
389.926018	0.999541
390.310008	1.001245
390.693936	0.999970
391.077802	1.000211
391.461606	1.000178
391.845348	1.000073
392.229027	1.000312
392.612645	1.000158
392.996200	1.001204
393.379694	0.999840
393.763125	1.000363
394.146494	1.001375
394.529801	0.999784
394.913047	1.001143
395.296230	1.000946
395.679351	1.000931
396.062410	0.999730
396.445408	1.000648
396.828343	0.999603
397.211217	0.999879
397.594028	1.001650
397.976778	1.000509
398.359466	0.999942
398.742092	0.999307
399.124656	0.999526
399.507158	1.000601
399.889598	1.000392
400.271977	1.000407
400.654294	1.000800
401.036549	1.001248
401.418742	1.001270
401.800874	1.000311
402.182944	1.000288
402.564952	0.999080
402.946898	1.000267
403.328783	1.000867
403.710606	1.000702
404.092367	1.000960
404.474067	1.000898
404.855705	0.999943
405.237282	1.000267
405.618797	1.000239
406.000250	1.000762
406.381642	1.000294
406.762972	1.001179
407.144240	1.001439
407.525447	1.000796
407.906593	1.001078
408.287677	1.000629
408.668700	1.000669
409.049661	1.000295
409.430560	1.000508
409.811399	0.999575
410.192176	1.000690
410.572891	1.000293
410.953545	1.000095
411.334138	0.999038
411.714669	1.000047
412.095139	1.000114
412.475547	1.001113
412.855894	1.000424
413.236180	1.001320
413.616405	1.000570
413.996568	1.001160
414.376670	1.000391
414.756711	1.000189
415.136691	1.001264
415.516609	1.000797
415.896466	1.000439
416.276262	0.999243
416.655997	1.001307
417.035670	0.999920
417.415283	1.001212
417.794834	1.000736
418.174324	1.000722
418.553753	1.001175
418.933121	0.999575
419.312428	1.000916
419.691674	1.000192
420.070859	1.000245
420.449983	1.001373
420.829045	1.001220
421.208047	1.001593
421.586988	1.001318
421.965867	1.000482
422.344686	1.001670
422.723444	1.000769
423.102141	1.000893
423.480777	1.000718
423.859352	1.000621
424.237866	1.000863
424.616319	1.000895
424.994712	1.000482
425.373044	1.001211
425.751314	1.000672
426.129524	0.999639
426.507673	1.001087
426.885762	1.001178
427.263789	1.001403
427.641756	1.001306
428.019662	1.001301
428.397508	1.000426
428.775292	0.999944
429.153016	0.999918
429.530679	1.001417
429.908282	1.001320
430.285824	1.000584
430.663305	0.999628
431.040726	1.000779
431.418086	1.001700
431.795385	1.001289
432.172624	1.000917
432.549802	1.001029
432.926920	1.001158
433.303977	0.999978
433.680974	1.001016
434.057910	1.000712
434.434786	1.001300
434.811601	1.000461
435.188355	0.999964
435.565050	1.000438
435.941683	1.000642
436.318257	1.001765
436.694770	1.000251
437.071222	1.001421
437.447614	1.000562
437.823946	1.000794
438.200218	1.000828
438.576429	1.000894
438.952580	1.002146
439.328670	1.001024
439.704700	1.001485
440.080670	1.001059
440.456580	1.001151
440.832429	0.999940
441.208218	1.001211
441.583947	1.000875
441.959616	1.000915
442.335224	1.000256
442.710773	1.001334
443.086261	1.000780
443.461689	1.000184
443.837057	1.000522
444.212365	1.001294
444.587612	1.001350
444.962800	0.999962
445.337927	1.001163
445.712995	1.001443
446.088002	1.001441
446.462949	1.001333
446.837837	1.001294
447.212664	1.001253
447.587431	1.000514
447.962139	1.000550
448.336786	1.000881
448.711374	1.000902
449.085901	1.000243
449.460369	1.001236
449.834776	1.000323
450.209124	1.000745
450.583412	1.001070
450.957640	1.000857
451.331808	1.000386
451.705917	1.001238
452.079965	1.000592
452.453954	1.000388
452.827883	1.000545
453.201752	1.001316
453.575562	1.001342
453.949311	1.001242
454.323001	1.001252
454.696632	1.000013
455.070202	1.000218
455.443713	1.000455
455.817164	1.001456
456.190556	1.000771
456.563888	1.000383
456.937160	1.001143
457.310373	1.000910
457.683526	1.001351
458.056619	1.000420
458.429653	1.000666
458.802628	1.000303
459.175542	1.000397
459.548398	1.000913
459.921194	1.000505
460.293930	1.000702
460.666607	0.999506
461.039224	0.999844
461.411782	1.001002
461.784280	0.999869
462.156719	1.001703
462.529099	1.000673
462.901419	1.001113
463.273680	1.000779
463.645882	1.001092
464.018024	1.000907
464.390106	1.000915
464.762130	1.002117
465.134094	1.000467
465.505999	1.001218
465.877845	1.000864
466.249631	1.001165
466.621358	1.001288
466.993026	1.001281
467.364634	1.001222
467.736184	1.001691
468.107674	1.001363
468.479105	1.000671
468.850477	1.001495
469.221790	1.001828
469.593043	1.000857
469.964238	1.001866
470.335373	1.001067
470.706449	1.001251
471.077467	1.001428
471.448425	1.001064
471.819324	1.001795
472.190164	1.000200
472.560945	1.001551
472.931667	1.001494
473.302330	1.001009
473.672934	1.000879
474.043479	1.001199
474.413965	1.001173
474.784393	1.002256
475.154761	1.000957
475.525070	0.999967
475.895321	1.001965
476.265513	1.001753
476.635645	1.001387
477.005719	1.001459
477.375734	1.000772
477.745691	1.001573
478.115588	1.001426
478.485427	1.000819
478.855207	1.000584
479.224928	1.001444
479.594591	1.001349
479.964194	1.001262
480.333739	1.001487
480.703226	1.001426
481.072653	1.002137
481.442022	1.001968
481.811333	1.000125
482.180584	1.002076
482.549777	1.001447
482.918912	1.001427
483.287988	1.001357
483.657005	1.001401
484.025964	1.001650
484.394864	1.001615
484.763706	1.001046
485.132489	1.001680
485.501213	1.001630
485.869879	1.001667
486.238487	1.001452
486.607036	1.001545
486.975527	1.000776
487.343959	1.001217
487.712333	1.000775
488.080648	1.001480
488.448905	1.000950
488.817104	1.001501
489.185244	1.001533
489.553326	1.000933
489.921350	1.000993
490.289315	1.001126
490.657222	1.001410
491.025070	1.001291
491.392861	1.001946
491.760593	1.001434
492.128267	1.001835
492.495883	1.000619
492.863440	1.001535
493.230939	1.001493
493.598380	1.001137
493.965763	1.001170
494.333088	1.002298
494.700354	1.000548
495.067563	1.001162
495.434713	1.000868
495.801805	1.001436
496.168839	1.001772
496.535815	1.000949
496.902733	1.001187
497.269593	1.001135
497.636395	1.001367
498.003139	1.001628
498.369825	1.002088
498.736453	1.001105
499.103023	1.000348
499.469535	1.000461
499.835989	1.001317
500.202385	1.001427
500.568723	1.000816
500.935003	1.001768
501.301226	1.001387
501.667390	1.001132
502.033497	1.001272
502.399546	1.001336
502.765537	1.000553
503.131470	1.001180
503.497345	1.000554
503.863163	1.001948
504.228923	1.001465
504.594625	1.001207
504.960269	1.001723
505.325856	1.001390
505.691385	1.000824
506.056856	1.000680
506.422270	1.001015
506.787625	1.001495
507.152924	1.001333
507.518164	1.000979
507.883347	1.001113
508.248472	1.000880
508.613540	1.001198
508.978550	1.001168
509.343503	1.000748
509.708398	1.002072
510.073236	1.000650
510.438016	1.002070
510.802738	1.000946
511.167403	1.001014
511.532010	1.000861
511.896561	1.001167
512.261053	1.001993
512.625488	1.001271
512.989866	1.000870
513.354186	1.000956
513.718449	1.001522
514.082655	1.001549
514.446803	1.001954
514.810894	1.002065
515.174927	1.001207
515.538904	1.000895
515.902822	1.000898
516.266684	1.001626
516.630488	1.001359
516.994235	1.001544
517.357925	1.001559
517.721558	1.001574
518.085133	1.000763
518.448651	1.002080
518.812112	1.000857
519.175516	1.000779
519.538863	1.001520
519.902152	1.000961
520.265385	1.000719
520.628560	1.000752
520.991678	1.001550
521.354739	1.001546
521.717743	1.001132
522.080690	1.001847
522.443580	1.001195
522.806413	1.001033
523.169189	1.000632
523.531908	1.000918
523.894569	1.001254
524.257174	1.001392
524.619722	1.001310
524.982213	1.001287
525.344647	1.000860
525.707025	1.000565
526.069345	1.000850
526.431608	1.000905
526.793815	1.001010
527.155964	1.001166
527.518057	1.001293
527.880093	1.001162
528.242072	1.001316
528.603995	1.000633
528.965860	1.002344
529.327669	1.001071
529.689421	1.001261
530.051117	1.001792
530.412755	1.000953
530.774337	1.001515
531.135862	1.000887
531.497331	1.001400
531.858743	1.001017
532.220098	1.001673
532.581396	1.001590
532.942638	1.002047
533.303824	1.001051
533.664953	1.001039
534.026025	1.000972
534.387040	1.000690
534.747999	1.001247
535.108902	1.001503
535.469748	1.000985
535.830537	1.000980
536.191270	1.001270
536.551947	1.001098
536.912567	1.000954
537.273131	1.001603
537.633638	1.000991
537.994089	1.001491
538.354483	1.000663
538.714821	1.001135
539.075103	1.001174
539.435328	1.001547
539.795497	1.001110
540.155609	1.000913
540.515665	1.001566
540.875665	1.000502
541.235609	1.000620
541.595496	1.000933
541.955328	1.000383
542.315102	1.001559
542.674821	1.001120
543.034483	1.000606
543.394090	1.000259
543.753640	1.001898
544.113134	1.001437
544.472571	1.001701
544.831953	1.001818
545.191278	1.001147
545.550548	1.001953
545.909761	1.000705
546.268918	1.001353
546.628019	1.001137
546.987064	1.000832
547.346053	1.001275
547.704986	1.001143
548.063863	1.001179
548.422684	1.001788
548.781449	1.001588
549.140158	1.000490
549.498811	1.001211
549.857408	1.001402
550.215949	1.001692
550.574434	1.001263
550.932864	1.001005
551.291237	1.001331
551.649555	1.001063
552.007817	1.001383
552.366022	1.000799
552.724173	1.001258
553.082267	1.001133
553.440305	1.000503
553.798288	1.001158
554.156215	1.001284
554.514086	1.001544
554.871902	1.001399
555.229661	1.000931
555.587365	1.001070
555.945014	1.001931
556.302606	1.000723
556.660143	1.001452
557.017625	1.000515
557.375050	1.000764
557.732421	1.001106
558.089735	1.000928
558.446994	1.002315
558.804197	1.001559
559.161345	1.002221
559.518437	1.001920
559.875474	1.001014
560.232455	1.001345
560.589381	1.001377
560.946251	1.001142
561.303065	1.000688
561.659825	1.001513
562.016528	1.000937
562.373177	1.001542
562.729770	1.000710
563.086307	1.000902
563.442789	1.000872
563.799216	1.000764
564.155587	1.000458
564.511904	1.000653
564.868164	1.000760
565.224370	1.000826
565.580520	1.001119
565.936615	1.000547
566.292654	1.001081
566.648638	1.000633
567.004567	1.000747
567.360441	1.001376
567.716260	1.001541
568.072023	1.001682
568.427732	1.001322
568.783385	1.000654
569.138982	1.001434
569.494525	1.000878
569.850013	1.001224
570.205445	1.001478
570.560823	1.001238
570.916145	1.001689
571.271412	1.000842
571.626625	1.001077
571.981782	1.000988
572.336884	1.001247
572.691931	1.001235
573.046923	1.001110
573.401860	1.001848
573.756743	1.001225
574.111570	1.001207
574.466342	1.001457
574.821059	1.001227
575.175722	1.000312
575.530330	1.001598
575.884882	1.001111
576.239380	1.001371
576.593823	1.001366
576.948211	1.001218
577.302544	1.001590
577.656823	1.001223
578.011047	1.001556
578.365216	1.001382
578.719330	1.000526
579.073389	1.001476
579.427394	1.001581
579.781344	1.001215
580.135239	1.001399
580.489080	1.000925
580.842866	1.000958
581.196597	1.000567
581.550273	1.000627
581.903895	1.000799
582.257463	1.001246
582.610975	1.000588
582.964434	1.000394
583.317837	1.002304
583.671186	1.001249
584.024481	1.000747
584.377721	1.001536
584.730906	1.001476
585.084037	1.001264
585.437113	1.000836
585.790135	1.000774
586.143103	1.000607
586.496016	1.001771
586.848874	1.001426
587.201679	1.000714
587.554428	1.001779
587.907124	1.000758
588.259765	1.001292
588.612352	1.001695
588.964884	1.001998
589.317362	1.001080
589.669786	1.001141
590.022155	1.001781
590.374470	1.000856
590.726731	1.000760
591.078937	0.999641
591.431090	1.000283
591.783188	1.000772
592.135232	1.001169
592.487222	1.001108
592.839157	1.001399
593.191038	1.001334
593.542866	1.000872
593.894639	1.002153
594.246358	1.000457
594.598022	1.000914
594.949633	1.000859
595.301190	1.000563
595.652692	1.001549
596.004141	1.001525
596.355535	1.001070
596.706876	1.000780
597.058162	1.001811
597.409395	1.001259
597.760573	1.000961
598.111698	1.000891
598.462768	1.000596
598.813785	1.000295
599.164748	1.001667
599.515657	1.000374
599.866511	1.000954
600.217312	1.000105
600.568060	1.000935
600.918753	1.001679
601.269392	1.000819
601.619978	1.000119
601.970510	1.001745
602.320988	1.001273
602.671412	1.000560
603.021783	1.001488
603.372100	1.001770
603.722363	1.002088
604.072572	1.000646
604.422728	1.001107
604.772830	1.000492
605.122878	1.001307
605.472872	1.000988
605.822813	1.000543
606.172701	1.001031
606.522534	1.001651
606.872314	1.001676
607.222041	1.000130
607.571714	1.001084
607.921333	1.000612
608.270899	1.000833
608.620411	1.001184
608.969870	1.001519
609.319276	1.001168
609.668627	1.001223
610.017926	1.000416
610.367171	1.001261
610.716362	1.001034
611.065500	1.000401
611.414585	1.000288
611.763616	1.000617
612.112594	1.000606
612.461518	1.001453
612.810389	1.000777
613.159207	1.000655
613.507971	1.001024
613.856682	1.001115
614.205340	1.001404
614.553945	1.000421
614.902496	1.000714
615.250994	1.001184
615.599439	1.001371
615.947830	1.000986
616.296169	1.000781
616.644454	0.999810
616.992686	1.000879
617.340864	1.000285
617.688990	1.001158
618.037063	1.000571
618.385082	1.000715
618.733048	1.001047
619.080961	1.001420
619.428821	1.001112
619.776628	1.000564
620.124382	1.000918
620.472083	0.999350
620.819731	1.000967
621.167326	1.000952
621.514868	1.000469
621.862357	1.000638
622.209793	1.001641
622.557176	1.000054
622.904506	1.000279
623.251783	1.000049
623.599007	1.001004
623.946179	1.000707
624.293297	1.000460
624.640363	1.000382
624.987376	0.999576
625.334336	1.001667
625.681243	1.000568
626.028097	1.002069
626.374899	1.001204
626.721647	1.001263
627.068343	1.001248
627.414987	1.000434
627.761577	1.000690
628.108115	1.001511
628.454600	1.000553
628.801032	1.000027
629.147412	0.999997
629.493739	1.000489
629.840014	1.000586
630.186236	1.000788
630.532405	1.000947
630.878521	1.001096
631.224585	1.000905
631.570597	1.000440
631.916556	1.001100
632.262462	1.000830
632.608316	1.001438
632.954117	1.000489
633.299866	0.999949
633.645562	1.000826
633.991206	1.000576
634.336797	1.000838
634.682336	1.000962
635.027823	1.000539
635.373257	1.000907
635.718639	1.001299
636.063968	1.000337
636.409245	0.999722
636.754470	1.001077
637.099642	1.000688
637.444762	1.000291
637.789829	1.000348
638.134845	1.000503
638.479808	1.000434
638.824719	1.001202
639.169577	0.999738
639.514383	1.000672
639.859137	0.999798
640.203839	1.000551
640.548489	0.999888
640.893086	1.000289
641.237632	1.001029
641.582125	1.000700
641.926566	0.999527
642.270955	1.000001
642.615292	1.000979
642.959576	1.001027
643.303809	1.000413
643.647990	1.000080
643.992118	1.000599
644.336195	1.001483
644.680219	1.000586
645.024192	1.000286
645.368112	0.999669
645.711981	1.000754
646.055797	1.000321
646.399562	0.999632
646.743274	0.999302
647.086935	1.000134
647.430544	1.000125
647.774101	1.000201
648.117606	1.000480
648.461059	0.999535
648.804460	0.999584
649.147810	0.999792
649.491108	1.000360
649.834354	1.000625
650.177548	1.000817
650.520690	1.000481
650.863781	1.000686
651.206820	1.000822
651.549807	1.000965
651.892742	1.000274
652.235626	1.000752
652.578458	1.001238
652.921238	0.999975
653.263967	1.001446
653.606644	1.001437
653.949269	1.000201
654.291843	0.999993
654.634365	1.000106
654.976836	1.000532
655.319255	1.000636
655.661622	1.000661
656.003938	0.999918
656.346203	1.000210
656.688416	1.000165
657.030577	1.000343
657.372687	0.999760
657.714746	1.000300
658.056753	1.000552
658.398708	1.000980
658.740612	1.000218
659.082465	1.000689
659.424266	1.000880
659.766016	0.999121
660.107715	1.000028
660.449362	1.000322
660.790958	0.999793
661.132503	0.998525
661.473996	0.999607
661.815438	0.999862
662.156829	0.999814
662.498168	1.001000
662.839456	0.998680
663.180693	1.000691
663.521879	0.999474
663.863013	1.000975
664.204097	1.001231
664.545129	1.001105
664.886110	1.000384
665.227040	0.999822
665.567918	1.000073
665.908746	0.999523
666.249522	0.999930
666.590248	1.000289
666.930922	1.000407
667.271545	1.000722
667.612118	1.000034
667.952639	1.000333
668.293109	0.999830
668.633528	0.999955
668.973896	0.999935
669.314213	0.999692
669.654480	0.999917
669.994695	0.999621
670.334859	1.000619
670.674973	0.999836
671.015035	1.000310
671.355047	0.999630
671.695008	0.999865
672.034918	0.999083
672.374777	0.999797
672.714585	0.999525
673.054342	1.000413
673.394049	0.999131
673.733705	0.999267
674.073310	0.999439
674.412864	1.000431
674.752368	0.999681
675.091820	1.000664
675.431223	0.999397
675.770574	1.000116
676.109875	0.999315
676.449125	1.000124
676.788324	0.999617
677.127473	1.001149
677.466571	0.999200
677.805619	0.999782
678.144616	1.000046
678.483562	0.999141
678.822458	0.999231
679.161303	1.001401
679.500098	0.999680
679.838842	1.001505
680.177535	1.000806
680.516179	1.000168
680.854771	1.000402
681.193314	0.999841
681.531805	0.998841
681.870247	0.999070
682.208638	0.999714
682.546978	0.999108
682.885268	0.999869
683.223508	1.000345
683.561697	0.998950
683.899836	1.000376
684.237925	0.999426
684.575963	0.999696
684.913951	0.999498
685.251889	1.000126
685.589776	0.999218
685.927614	0.999582
686.265401	0.999620
686.603137	0.999497
686.940824	0.999312
687.278460	0.999646
687.616046	0.999342
687.953582	0.998667
688.291068	0.999378
688.628504	1.000426
