Dividing Wavelength (nm)	Counts (n)	Blue Motor Position (mm): 0.000000	Red Motor Position (mm): 44.400000	
326.493990	1.001178
326.888308	1.001178
327.282561	1.001178
327.676750	1.000189
328.070874	1.000095
328.464933	0.999929
328.858929	0.999509
329.252859	1.000820
329.646726	0.999769
330.040528	1.000977
330.434265	0.999898
330.827938	1.001171
331.221547	1.000507
331.615091	1.000175
332.008571	0.999159
332.401986	0.999917
332.795338	1.000981
333.188625	0.998738
333.581847	1.000365
333.975006	0.999746
334.368100	0.999590
334.761129	1.000217
335.154095	1.001869
335.546996	0.999757
335.939833	0.998488
336.332606	0.998738
336.725315	0.999418
337.117960	1.001167
337.510540	0.999090
337.903056	1.000054
338.295508	0.998708
338.687896	0.999958
339.080220	1.000641
339.472480	0.999063
339.864676	0.998976
340.256807	0.999654
340.648875	1.000139
341.040879	0.999602
341.432818	0.998906
341.824694	0.999102
342.216506	0.999745
342.608253	0.998776
342.999937	0.999096
343.391557	0.997750
343.783113	0.998484
344.174605	0.998236
344.566033	1.001041
344.957397	0.997963
345.348697	0.999303
345.739934	0.997929
346.131106	0.997694
346.522215	0.999623
346.913260	0.998591
347.304241	0.999991
347.695159	0.998605
348.086012	0.998081
348.476802	1.000398
348.867528	0.999460
349.258191	0.999735
349.648789	0.999057
350.039324	0.999415
350.429796	0.999637
350.820203	0.999718
351.210548	0.998436
351.600828	0.999948
351.991045	0.999541
352.381198	0.997632
352.771288	0.999718
353.161314	0.998741
353.551276	0.999290
353.941175	0.999912
354.331010	0.999291
354.720782	0.999340
355.110490	0.998734
355.500135	1.000201
355.889717	0.999735
356.279235	0.998562
356.668689	0.999108
357.058080	0.999936
357.447408	1.000771
357.836672	0.999599
358.225873	1.000656
358.615010	0.999798
359.004084	1.000783
359.393095	0.999294
359.782043	0.999732
360.170927	1.001004
360.559748	1.001420
360.948505	0.998757
361.337199	0.998664
361.725830	0.998379
362.114398	0.998826
362.502903	0.999348
362.891344	1.000413
363.279722	0.999517
363.668037	1.000761
364.056289	0.999057
364.444478	1.000054
364.832603	0.998890
365.220665	0.998607
365.608665	1.000062
365.996601	0.999187
366.384474	0.999934
366.772284	0.999424
367.160031	0.997616
367.547715	0.998429
367.935336	0.999584
368.322893	0.999441
368.710388	0.999194
369.097820	0.999123
369.485189	0.999681
369.872495	0.999448
370.259738	0.998579
370.646918	0.999467
371.034035	1.000771
371.421090	0.999148
371.808081	0.999570
372.195010	0.999565
372.581875	1.000304
372.968678	0.999068
373.355418	0.999028
373.742096	0.999924
374.128710	1.000093
374.515262	0.998246
374.901751	1.000392
375.288177	0.999427
375.674540	0.999465
376.060841	0.998968
376.447079	0.999981
376.833254	0.999641
377.219367	0.999311
377.605417	0.999459
377.991404	0.999868
378.377329	0.998657
378.763191	0.998495
379.148991	1.000218
379.534727	1.000892
379.920402	0.999225
380.306013	0.999299
380.691563	1.000091
381.077049	0.999438
381.462474	0.999422
381.847835	0.999556
382.233134	0.998807
382.618371	1.000095
383.003545	1.000256
383.388657	0.999719
383.773706	1.000452
384.158693	1.000600
384.543618	0.999476
384.928480	1.001219
385.313280	0.999898
385.698017	1.000431
386.082692	0.999988
386.467305	0.999560
386.851856	0.999389
387.236344	0.999248
387.620770	0.999865
388.005133	1.000656
388.389435	1.000486
388.773674	0.999713
389.157851	1.000103
389.541965	1.000975
389.926018	0.999710
390.310008	1.000568
390.693936	0.999729
391.077802	1.000514
391.461606	1.000466
391.845348	0.999495
392.229027	1.000819
392.612645	1.000002
392.996200	1.000551
393.379694	1.000288
393.763125	1.001160
394.146494	1.000244
394.529801	1.000268
394.913047	0.999973
395.296230	0.999888
395.679351	1.000477
396.062410	0.999924
396.445408	0.999518
396.828343	1.000586
397.211217	1.000065
397.594028	1.001028
397.976778	1.000260
398.359466	1.000005
398.742092	0.999677
399.124656	0.999031
399.507158	1.000067
399.889598	1.000748
400.271977	0.999452
400.654294	0.999918
401.036549	1.000064
401.418742	1.000399
401.800874	0.999547
402.182944	1.000386
402.564952	0.999210
402.946898	1.001129
403.328783	0.999547
403.710606	1.000018
404.092367	1.000510
404.474067	1.001147
404.855705	1.000159
405.237282	0.999566
405.618797	0.999931
406.000250	0.999279
406.381642	1.000121
406.762972	1.001246
407.144240	1.000868
407.525447	1.000287
407.906593	1.000333
408.287677	1.000196
408.668700	1.000348
409.049661	0.999333
409.430560	1.000564
409.811399	0.999504
410.192176	1.000221
410.572891	0.999758
410.953545	1.000211
411.334138	0.999382
411.714669	1.000128
412.095139	0.999143
412.475547	1.000557
412.855894	0.999606
413.236180	1.000167
413.616405	0.999081
413.996568	1.000985
414.376670	1.000053
414.756711	0.999433
415.136691	0.999854
415.516609	1.000470
415.896466	1.000284
416.276262	0.999432
416.655997	1.000386
417.035670	0.999159
417.415283	1.000585
417.794834	1.000282
418.174324	1.000102
418.553753	1.000696
418.933121	1.000143
419.312428	0.999661
419.691674	1.000557
420.070859	1.000551
420.449983	1.000768
420.829045	1.000005
421.208047	1.001098
421.586988	1.001377
421.965867	1.000535
422.344686	1.001106
422.723444	1.000947
423.102141	1.001104
423.480777	1.001140
423.859352	1.000237
424.237866	0.999946
424.616319	1.000429
424.994712	1.000018
425.373044	1.000376
425.751314	1.000338
426.129524	1.000917
426.507673	1.001000
426.885762	1.001246
427.263789	1.000116
427.641756	1.000327
428.019662	1.000424
428.397508	1.000945
428.775292	0.999127
429.153016	1.000589
429.530679	1.000467
429.908282	1.001648
430.285824	0.999926
430.663305	1.000073
431.040726	0.999815
431.418086	1.001747
431.795385	1.000649
432.172624	1.000000
432.549802	1.001262
432.926920	1.000773
433.303977	0.999402
433.680974	1.000687
434.057910	1.000164
434.434786	1.000883
434.811601	1.000644
435.188355	1.001130
435.565050	1.000154
435.941683	0.999905
436.318257	1.000993
436.694770	1.000258
437.071222	1.000992
437.447614	1.000215
437.823946	1.000486
438.200218	1.000963
438.576429	1.000006
438.952580	1.001306
439.328670	1.000433
439.704700	0.999977
440.080670	1.000635
440.456580	1.000692
440.832429	0.999294
441.208218	1.000895
441.583947	1.000927
441.959616	1.000918
442.335224	1.000702
442.710773	1.002109
443.086261	1.000048
443.461689	1.000553
443.837057	0.999877
444.212365	1.000282
444.587612	1.000621
444.962800	1.000165
445.337927	0.999922
445.712995	1.000505
446.088002	1.001007
446.462949	0.999779
446.837837	1.000690
447.212664	1.000769
447.587431	1.000882
447.962139	0.999790
448.336786	1.000454
448.711374	1.000460
449.085901	0.999612
449.460369	1.001283
449.834776	1.000499
450.209124	1.000994
450.583412	1.000315
450.957640	1.000332
451.331808	0.999808
451.705917	1.000174
452.079965	0.999482
452.453954	1.001131
452.827883	1.000011
453.201752	1.000848
453.575562	1.000852
453.949311	1.000983
454.323001	1.000859
454.696632	1.000415
455.070202	1.000060
455.443713	1.000140
455.817164	1.000833
456.190556	1.000415
456.563888	1.000608
456.937160	1.000798
457.310373	1.000617
457.683526	1.000636
458.056619	1.000367
458.429653	1.001095
458.802628	1.000095
459.175542	0.999397
459.548398	1.000300
459.921194	1.000926
460.293930	0.999877
460.666607	1.000229
461.039224	0.999264
461.411782	1.000764
461.784280	1.000334
462.156719	1.001304
462.529099	1.001386
462.901419	1.000746
463.273680	1.000759
463.645882	1.000580
464.018024	1.000187
464.390106	1.001158
464.762130	1.001714
465.134094	1.000253
465.505999	1.000456
465.877845	1.000596
466.249631	1.000867
466.621358	1.000495
466.993026	1.000591
467.364634	1.000511
467.736184	1.000708
468.107674	1.000035
468.479105	1.000123
468.850477	1.000744
469.221790	1.001488
469.593043	1.000815
469.964238	1.000977
470.335373	1.000333
470.706449	1.000494
471.077467	1.001024
471.448425	1.001261
471.819324	1.001173
472.190164	1.000403
472.560945	1.000649
472.931667	1.000513
473.302330	1.000504
473.672934	1.001375
474.043479	1.001162
474.413965	1.000678
474.784393	1.001296
475.154761	1.000210
475.525070	1.000371
475.895321	1.001002
476.265513	1.000240
476.635645	1.000777
477.005719	1.000445
477.375734	1.000451
477.745691	1.000129
478.115588	1.001027
478.485427	1.000906
478.855207	1.000416
479.224928	1.000935
479.594591	1.000911
479.964194	1.000624
480.333739	1.001112
480.703226	1.000891
481.072653	1.001191
481.442022	1.001157
481.811333	1.000331
482.180584	1.000913
482.549777	1.000386
482.918912	1.001022
483.287988	1.000743
483.657005	1.000131
484.025964	1.000886
484.394864	1.000778
484.763706	1.001171
485.132489	1.001340
485.501213	1.000394
485.869879	1.000457
486.238487	1.000970
486.607036	1.000952
486.975527	1.000121
487.343959	1.000319
487.712333	1.000255
488.080648	1.000538
488.448905	1.000386
488.817104	1.000581
489.185244	1.000748
489.553326	1.000375
489.921350	1.000112
490.289315	1.000267
490.657222	1.001335
491.025070	1.000927
491.392861	1.001699
491.760593	1.000614
492.128267	1.000849
492.495883	1.000929
492.863440	1.001016
493.230939	1.000752
493.598380	1.000283
493.965763	1.000283
494.333088	1.000355
494.700354	1.000261
495.067563	1.000924
495.434713	1.000152
495.801805	1.001273
496.168839	1.000201
496.535815	0.999836
496.902733	1.000673
497.269593	1.000890
497.636395	1.000471
498.003139	1.000621
498.369825	1.001169
498.736453	1.000781
499.103023	0.999420
499.469535	1.000027
499.835989	1.000319
500.202385	1.000920
500.568723	1.000303
500.935003	1.000955
501.301226	1.000938
501.667390	1.000380
502.033497	1.000799
502.399546	1.000541
502.765537	0.999932
503.131470	1.000337
503.497345	1.000145
503.863163	1.000852
504.228923	0.999910
504.594625	1.000806
504.960269	1.000946
505.325856	1.000758
505.691385	1.000632
506.056856	1.000394
506.422270	1.000785
506.787625	1.001640
507.152924	1.000060
507.518164	1.000143
507.883347	1.000957
508.248472	1.000015
508.613540	1.000582
508.978550	1.001425
509.343503	1.000323
509.708398	1.000768
510.073236	1.001382
510.438016	1.001614
510.802738	1.000627
511.167403	1.000812
511.532010	1.000831
511.896561	1.000860
512.261053	1.001016
512.625488	1.000929
512.989866	1.000053
513.354186	1.000058
513.718449	1.000287
514.082655	1.000136
514.446803	1.000153
514.810894	1.001106
515.174927	1.000436
515.538904	1.000058
515.902822	1.000498
516.266684	1.000537
516.630488	1.001443
516.994235	1.000383
517.357925	1.000268
517.721558	1.000311
518.085133	0.999805
518.448651	1.001175
518.812112	1.000861
519.175516	0.999846
519.538863	1.001074
519.902152	1.000503
520.265385	1.000456
520.628560	1.000426
520.991678	1.000876
521.354739	1.000474
521.717743	1.000825
522.080690	1.000749
522.443580	1.000331
522.806413	1.000484
523.169189	0.999650
523.531908	0.999835
523.894569	1.000620
524.257174	1.001356
524.619722	1.000857
524.982213	1.001125
525.344647	1.000948
525.707025	0.999906
526.069345	1.000120
526.431608	1.000317
526.793815	1.000827
527.155964	1.000205
527.518057	1.000363
527.880093	1.001036
528.242072	1.000468
528.603995	1.000674
528.965860	1.001248
529.327669	1.000029
529.689421	1.000058
530.051117	1.000971
530.412755	1.000329
530.774337	1.001286
531.135862	1.000690
531.497331	1.000558
531.858743	1.000782
532.220098	1.000485
532.581396	1.000580
532.942638	1.001040
533.303824	1.000977
533.664953	1.000592
534.026025	1.000579
534.387040	1.000556
534.747999	1.000155
535.108902	1.000751
535.469748	1.000378
535.830537	1.000566
536.191270	1.000365
536.551947	0.999853
536.912567	1.000343
537.273131	1.001093
537.633638	0.999981
537.994089	1.000353
538.354483	1.000116
538.714821	1.000722
539.075103	1.000420
539.435328	1.000599
539.795497	1.000712
540.155609	0.999897
540.515665	1.000083
540.875665	1.000030
541.235609	0.999884
541.595496	0.999807
541.955328	0.999372
542.315102	1.000248
542.674821	1.000249
543.034483	0.999590
543.394090	0.999355
543.753640	1.000471
544.113134	0.999847
544.472571	1.000430
544.831953	1.000024
545.191278	1.000282
545.550548	1.000583
545.909761	0.999568
546.268918	1.000213
546.628019	0.999689
546.987064	0.999923
547.346053	1.000201
547.704986	1.000493
548.063863	0.999835
548.422684	1.000152
548.781449	1.000825
549.140158	0.999247
549.498811	1.000393
549.857408	0.999793
550.215949	1.000342
550.574434	0.999700
550.932864	0.999791
551.291237	1.000481
551.649555	1.000010
552.007817	1.000072
552.366022	0.999567
552.724173	1.000120
553.082267	1.000230
553.440305	0.999563
553.798288	0.999563
554.156215	1.000306
554.514086	1.000447
554.871902	0.999304
555.229661	0.999504
555.587365	0.999665
555.945014	1.000351
556.302606	1.000113
556.660143	1.000178
557.017625	1.000134
557.375050	0.999475
557.732421	0.999715
558.089735	0.999504
558.446994	1.000397
558.804197	1.000215
559.161345	1.000722
559.518437	1.000941
559.875474	0.998527
560.232455	0.999634
560.589381	1.000218
560.946251	0.999090
561.303065	0.999251
561.659825	0.999991
562.016528	0.999123
562.373177	0.999905
562.729770	0.999847
563.086307	0.999850
563.442789	1.000166
563.799216	1.000081
564.155587	0.999761
564.511904	0.999061
564.868164	0.999427
565.224370	0.999793
565.580520	1.000201
565.936615	0.998889
566.292654	0.999689
566.648638	1.000033
567.004567	0.999252
567.360441	1.000423
567.716260	0.999986
568.072023	0.999582
568.427732	0.999331
568.783385	1.000099
569.138982	0.999968
569.494525	1.000040
569.850013	0.999860
570.205445	0.999001
570.560823	0.999969
570.916145	0.999499
571.271412	1.000021
571.626625	0.999643
571.981782	0.999480
572.336884	1.000911
572.691931	1.000067
573.046923	0.999615
573.401860	1.000068
573.756743	0.999827
574.111570	1.000271
574.466342	1.000244
574.821059	1.000241
575.175722	0.999602
575.530330	1.000773
575.884882	0.999169
576.239380	1.000936
576.593823	0.999903
576.948211	1.000022
577.302544	1.000041
577.656823	0.999912
578.011047	1.000131
578.365216	0.999762
578.719330	0.999295
579.073389	0.999818
579.427394	0.999643
579.781344	1.000568
580.135239	1.000072
580.489080	0.999697
580.842866	1.000335
581.196597	0.999534
581.550273	0.999904
581.903895	0.999782
582.257463	1.000055
582.610975	1.000523
582.964434	0.999853
583.317837	1.000827
583.671186	1.000198
584.024481	0.999644
584.377721	1.000166
584.730906	1.000199
585.084037	1.000773
585.437113	0.999986
585.790135	1.000247
586.143103	0.999817
586.496016	1.000825
586.848874	0.999745
587.201679	0.999641
587.554428	1.000317
587.907124	0.999863
588.259765	0.999957
588.612352	1.000241
588.964884	1.000921
589.317362	1.000217
589.669786	1.000723
590.022155	1.001024
590.374470	0.999266
590.726731	0.999506
591.078937	0.999602
591.431090	0.999645
591.783188	0.999614
592.135232	0.999870
592.487222	1.000215
592.839157	1.000080
593.191038	1.000110
593.542866	1.000259
593.894639	1.000483
594.246358	0.999683
594.598022	1.000099
594.949633	0.999758
595.301190	0.999410
595.652692	1.000205
596.004141	1.001112
596.355535	1.000129
596.706876	0.999927
597.058162	1.000165
597.409395	0.999992
597.760573	1.000187
598.111698	0.999420
598.462768	0.999956
598.813785	0.999969
599.164748	0.999983
599.515657	1.000409
599.866511	0.999799
600.217312	0.999971
600.568060	0.999857
600.918753	1.000960
601.269392	0.999996
601.619978	0.999022
601.970510	1.000028
602.320988	1.000441
602.671412	0.999472
603.021783	1.000669
603.372100	1.000437
603.722363	1.000357
604.072572	1.000390
604.422728	1.000587
604.772830	0.999480
605.122878	0.999953
605.472872	0.999251
605.822813	0.999760
606.172701	1.000175
606.522534	1.000286
606.872314	1.000164
607.222041	1.000155
607.571714	1.000973
607.921333	0.999351
608.270899	0.999943
608.620411	0.999971
608.969870	1.000100
609.319276	0.999325
609.668627	1.000260
610.017926	0.999159
610.367171	0.999592
610.716362	0.999638
611.065500	0.999517
611.414585	0.999514
611.763616	1.000394
612.112594	0.999628
612.461518	0.999354
612.810389	1.000079
613.159207	0.999666
613.507971	0.998979
613.856682	1.000436
614.205340	1.000092
614.553945	0.999154
614.902496	0.999315
615.250994	0.999347
615.599439	1.000035
615.947830	0.998958
616.296169	0.999458
616.644454	0.999369
616.992686	0.999525
617.340864	0.999443
617.688990	0.999873
618.037063	0.999839
618.385082	1.000022
618.733048	0.999264
619.080961	0.999364
619.428821	0.999249
619.776628	0.999335
620.124382	0.998760
620.472083	0.998027
620.819731	0.999001
621.167326	0.999432
621.514868	0.998760
621.862357	0.999722
622.209793	0.999816
622.557176	0.998062
622.904506	0.998695
623.251783	0.999045
623.599007	0.999129
623.946179	0.999105
624.293297	0.999188
624.640363	0.999721
624.987376	0.998145
625.334336	0.999807
625.681243	0.998752
626.028097	0.999941
626.374899	0.999895
626.721647	0.998839
627.068343	0.999566
627.414987	0.998604
627.761577	0.998817
628.108115	0.999644
628.454600	0.999261
628.801032	0.998317
629.147412	0.999295
629.493739	0.999135
629.840014	0.998248
630.186236	0.998852
630.532405	0.999406
630.878521	0.999078
631.224585	0.998983
631.570597	0.998614
631.916556	0.998163
632.262462	0.998858
632.608316	0.998222
632.954117	0.997261
633.299866	0.997884
633.645562	0.998287
633.991206	0.998569
634.336797	0.998447
634.682336	0.998910
635.027823	0.998407
635.373257	0.998493
635.718639	0.997471
636.063968	0.997908
636.409245	0.997655
636.754470	0.998054
637.099642	0.998550
637.444762	0.997761
637.789829	0.998304
638.134845	0.996835
638.479808	0.997562
638.824719	0.997922
639.169577	0.997848
639.514383	0.996978
639.859137	0.997506
640.203839	0.997788
640.548489	0.996995
640.893086	0.997209
641.237632	0.998335
641.582125	0.996150
641.926566	0.996731
642.270955	0.996880
642.615292	0.998140
642.959576	0.997217
643.303809	0.996362
643.647990	0.996336
643.992118	0.995984
644.336195	0.996868
644.680219	0.996527
645.024192	0.995746
645.368112	0.995496
645.711981	0.995466
646.055797	0.995861
646.399562	0.994972
646.743274	0.993916
647.086935	0.994577
647.430544	0.994561
647.774101	0.994230
648.117606	0.993931
648.461059	0.993038
648.804460	0.994120
649.147810	0.993806
649.491108	0.994403
649.834354	0.993874
650.177548	0.993973
650.520690	0.993761
650.863781	0.993166
651.206820	0.993732
651.549807	0.993212
651.892742	0.993133
652.235626	0.992760
652.578458	0.993482
652.921238	0.992043
653.263967	0.993047
653.606644	0.993065
653.949269	0.991893
654.291843	0.992176
654.634365	0.991824
654.976836	0.991214
655.319255	0.991245
655.661622	0.991630
656.003938	0.990753
656.346203	0.990468
656.688416	0.990552
657.030577	0.991071
657.372687	0.989519
657.714746	0.989287
658.056753	0.989556
658.398708	0.989639
658.740612	0.989787
659.082465	0.989052
659.424266	0.988288
659.766016	0.987350
660.107715	0.985976
660.449362	0.986612
660.790958	0.987398
661.132503	0.985943
661.473996	0.985983
661.815438	0.985548
662.156829	0.985690
662.498168	0.985738
662.839456	0.984307
663.180693	0.984916
663.521879	0.984739
663.863013	0.985034
664.204097	0.983907
664.545129	0.983167
664.886110	0.982587
665.227040	0.981781
665.567918	0.981395
665.908746	0.981156
666.249522	0.980737
666.590248	0.980228
666.930922	0.979915
667.271545	0.979252
667.612118	0.978531
667.952639	0.979131
668.293109	0.978059
668.633528	0.977601
668.973896	0.978297
669.314213	0.976683
669.654480	0.976774
669.994695	0.976991
670.334859	0.976731
670.674973	0.974786
671.015035	0.975738
671.355047	0.974168
671.695008	0.973767
672.034918	0.972901
672.374777	0.973834
672.714585	0.972773
673.054342	0.972150
673.394049	0.971819
673.733705	0.970673
674.073310	0.969637
674.412864	0.970568
674.752368	0.968786
675.091820	0.970068
675.431223	0.970775
675.770574	0.968291
676.109875	0.967987
676.449125	0.968148
676.788324	0.967622
677.127473	0.968465
677.466571	0.967244
677.805619	0.966226
678.144616	0.965760
678.483562	0.965791
678.822458	0.966138
679.161303	0.965955
679.500098	0.964562
679.838842	0.965010
680.177535	0.963913
680.516179	0.963260
680.854771	0.962831
681.193314	0.961813
681.531805	0.960036
681.870247	0.956801
682.208638	0.955104
682.546978	0.954830
682.885268	0.954511
683.223508	0.954294
683.561697	0.953813
683.899836	0.954237
684.237925	0.954359
684.575963	0.952402
684.913951	0.953041
685.251889	0.950922
685.589776	0.950476
685.927614	0.951541
686.265401	0.948200
686.603137	0.949025
686.940824	0.945930
687.278460	0.945765
687.616046	0.944128
687.953582	0.942081
688.291068	0.942691
688.628504	0.941089
