Dividing Wavelength (nm)	Counts (n)	Blue Motor Position (mm): 0.000000	Red Motor Position (mm): 46.300000	
326.493990	1.002102
326.888308	1.002102
327.282561	1.002102
327.676750	0.999213
328.070874	0.999888
328.464933	0.999229
328.858929	0.999653
329.252859	0.999077
329.646726	0.999461
330.040528	1.001722
330.434265	0.999411
330.827938	1.000469
331.221547	1.001352
331.615091	1.000534
332.008571	1.000224
332.401986	0.999454
332.795338	1.000034
333.188625	0.997767
333.581847	1.001084
333.975006	0.999821
334.368100	0.999525
334.761129	1.001146
335.154095	1.001314
335.546996	0.999261
335.939833	0.999770
336.332606	0.999557
336.725315	1.000561
337.117960	1.001529
337.510540	1.000010
337.903056	1.000420
338.295508	0.998698
338.687896	1.000893
339.080220	0.999986
339.472480	1.000419
339.864676	0.999992
340.256807	1.000126
340.648875	1.000822
341.040879	1.000375
341.432818	1.000348
341.824694	1.000273
342.216506	1.000930
342.608253	1.000512
342.999937	0.999890
343.391557	1.000682
343.783113	0.999841
344.174605	1.001640
344.566033	1.000769
344.957397	0.998528
345.348697	0.999634
345.739934	1.000265
346.131106	0.998988
346.522215	0.999482
346.913260	0.999357
347.304241	0.999990
347.695159	1.001518
348.086012	0.999188
348.476802	0.999956
348.867528	1.000982
349.258191	0.998893
349.648789	1.000788
350.039324	1.000098
350.429796	0.999851
350.820203	1.000844
351.210548	0.999926
351.600828	1.000282
351.991045	1.001277
352.381198	0.999658
352.771288	0.999488
353.161314	0.999715
353.551276	1.000986
353.941175	0.999886
354.331010	0.999904
354.720782	1.000149
355.110490	1.000063
355.500135	1.000494
355.889717	0.999666
356.279235	0.999993
356.668689	1.000473
357.058080	0.999875
357.447408	1.001679
357.836672	1.002323
358.225873	1.000490
358.615010	0.999585
359.004084	1.000863
359.393095	1.000744
359.782043	1.000462
360.170927	1.000928
360.559748	1.001313
360.948505	1.000240
361.337199	1.000094
361.725830	1.000916
362.114398	1.000252
362.502903	1.001125
362.891344	1.000907
363.279722	1.000663
363.668037	1.000745
364.056289	1.000390
364.444478	1.001302
364.832603	1.001324
365.220665	0.999960
365.608665	1.001661
365.996601	1.000538
366.384474	1.000521
366.772284	1.000113
367.160031	0.998987
367.547715	0.998715
367.935336	1.000553
368.322893	1.000171
368.710388	0.999812
369.097820	0.999088
369.485189	0.999398
369.872495	1.000160
370.259738	0.999049
370.646918	1.000966
371.034035	1.000576
371.421090	1.000036
371.808081	1.000563
372.195010	1.001190
372.581875	0.999647
372.968678	1.000763
373.355418	0.999367
373.742096	0.999503
374.128710	1.001281
374.515262	0.999790
374.901751	1.000229
375.288177	0.999635
375.674540	1.001485
376.060841	0.999317
376.447079	1.001391
376.833254	0.999938
377.219367	0.999409
377.605417	0.999762
377.991404	1.000251
378.377329	1.000072
378.763191	1.000010
379.148991	1.000439
379.534727	1.000318
379.920402	1.000032
380.306013	0.999730
380.691563	0.999864
381.077049	1.000026
381.462474	1.001259
381.847835	1.000032
382.233134	1.000004
382.618371	0.999367
383.003545	0.999998
383.388657	0.999496
383.773706	1.000706
384.158693	1.001123
384.543618	1.000255
384.928480	1.001104
385.313280	0.999646
385.698017	1.000072
386.082692	1.000463
386.467305	1.000709
386.851856	1.000770
387.236344	0.999663
387.620770	1.000076
388.005133	1.000663
388.389435	1.001711
388.773674	1.000205
389.157851	1.001120
389.541965	1.000400
389.926018	0.999361
390.310008	1.001384
390.693936	1.000514
391.077802	1.001058
391.461606	1.000439
391.845348	1.000903
392.229027	1.001867
392.612645	1.001139
392.996200	1.001833
393.379694	1.000813
393.763125	1.001209
394.146494	1.001190
394.529801	1.000552
394.913047	1.000508
395.296230	1.001019
395.679351	1.000661
396.062410	1.000276
396.445408	1.001388
396.828343	1.001053
397.211217	1.000835
397.594028	1.001440
397.976778	1.000487
398.359466	1.000766
398.742092	1.000733
399.124656	1.000326
399.507158	1.000883
399.889598	1.001112
400.271977	1.001013
400.654294	1.000725
401.036549	1.000930
401.418742	1.001261
401.800874	1.000090
402.182944	1.001288
402.564952	1.000887
402.946898	1.001584
403.328783	1.001449
403.710606	1.000546
404.092367	1.001031
404.474067	1.000867
404.855705	1.001132
405.237282	1.001205
405.618797	1.000442
406.000250	1.000197
406.381642	1.001030
406.762972	1.001094
407.144240	1.000898
407.525447	1.001054
407.906593	1.000970
408.287677	1.001423
408.668700	1.000439
409.049661	1.000196
409.430560	1.001121
409.811399	1.000663
410.192176	1.001113
410.572891	1.001293
410.953545	1.000184
411.334138	0.999915
411.714669	1.000692
412.095139	0.999982
412.475547	1.001737
412.855894	1.000780
413.236180	1.000853
413.616405	1.001159
413.996568	1.001827
414.376670	1.001433
414.756711	1.000214
415.136691	1.000345
415.516609	1.000936
415.896466	1.000862
416.276262	1.000502
416.655997	1.000813
417.035670	1.000969
417.415283	1.000869
417.794834	1.000976
418.174324	1.001071
418.553753	1.001221
418.933121	1.001015
419.312428	1.000840
419.691674	1.000563
420.070859	1.001062
420.449983	1.001119
420.829045	1.001141
421.208047	1.002008
421.586988	1.001916
421.965867	1.001149
422.344686	1.001952
422.723444	1.001352
423.102141	1.001456
423.480777	1.001382
423.859352	1.001401
424.237866	1.001483
424.616319	1.001198
424.994712	1.000766
425.373044	1.001583
425.751314	1.001544
426.129524	1.000440
426.507673	1.001622
426.885762	1.001625
427.263789	1.001097
427.641756	1.001783
428.019662	1.001563
428.397508	1.000847
428.775292	1.000958
429.153016	1.001540
429.530679	1.002183
429.908282	1.000973
430.285824	1.000743
430.663305	1.000143
431.040726	1.001177
431.418086	1.001808
431.795385	1.002106
432.172624	1.000627
432.549802	1.001004
432.926920	1.002033
433.303977	1.000270
433.680974	1.001466
434.057910	1.000872
434.434786	1.001645
434.811601	1.000166
435.188355	1.001395
435.565050	1.000751
435.941683	1.001418
436.318257	1.002395
436.694770	1.000701
437.071222	1.001942
437.447614	1.001183
437.823946	1.000569
438.200218	1.000559
438.576429	1.001725
438.952580	1.001556
439.328670	1.000637
439.704700	1.001192
440.080670	1.001833
440.456580	1.001654
440.832429	1.000388
441.208218	1.001060
441.583947	1.001685
441.959616	1.001783
442.335224	1.001266
442.710773	1.001896
443.086261	1.001110
443.461689	1.000644
443.837057	1.000986
444.212365	1.001307
444.587612	1.000891
444.962800	1.001059
445.337927	1.001811
445.712995	1.001412
446.088002	1.001274
446.462949	1.000883
446.837837	1.001799
447.212664	1.001431
447.587431	1.001057
447.962139	1.001175
448.336786	1.000959
448.711374	1.001738
449.085901	1.000026
449.460369	1.001725
449.834776	1.000275
450.209124	1.001436
450.583412	1.001039
450.957640	1.001779
451.331808	1.001294
451.705917	1.001133
452.079965	1.000619
452.453954	1.001341
452.827883	1.000821
453.201752	1.001306
453.575562	1.001614
453.949311	1.002016
454.323001	1.000554
454.696632	1.000461
455.070202	1.000917
455.443713	1.000550
455.817164	1.001298
456.190556	1.000993
456.563888	1.000641
456.937160	1.001622
457.310373	1.000925
457.683526	1.001069
458.056619	1.001317
458.429653	1.000951
458.802628	1.000321
459.175542	1.000692
459.548398	1.001555
459.921194	1.001096
460.293930	1.000769
460.666607	1.000566
461.039224	0.999950
461.411782	1.001836
461.784280	1.000198
462.156719	1.001527
462.529099	1.001113
462.901419	1.001211
463.273680	1.001438
463.645882	1.001498
464.018024	1.001693
464.390106	1.001428
464.762130	1.002094
465.134094	1.001743
465.505999	1.001274
465.877845	1.000778
466.249631	1.001542
466.621358	1.000874
466.993026	1.001475
467.364634	1.002141
467.736184	1.002361
468.107674	1.001408
468.479105	1.000758
468.850477	1.001428
469.221790	1.001693
469.593043	1.001860
469.964238	1.001758
470.335373	1.001145
470.706449	1.001330
471.077467	1.001979
471.448425	1.001778
471.819324	1.002579
472.190164	1.001443
472.560945	1.002084
472.931667	1.001247
473.302330	1.001425
473.672934	1.001932
474.043479	1.001944
474.413965	1.000803
474.784393	1.001902
475.154761	1.001112
475.525070	1.001375
475.895321	1.001353
476.265513	1.001361
476.635645	1.001030
477.005719	1.001617
477.375734	1.000855
477.745691	1.001242
478.115588	1.001535
478.485427	1.001470
478.855207	1.001451
479.224928	1.001186
479.594591	1.002098
479.964194	1.001531
480.333739	1.001320
480.703226	1.001280
481.072653	1.001850
481.442022	1.001557
481.811333	1.000501
482.180584	1.002047
482.549777	1.001215
482.918912	1.001038
483.287988	1.001815
483.657005	1.001408
484.025964	1.002178
484.394864	1.001749
484.763706	1.002115
485.132489	1.002216
485.501213	1.001904
485.869879	1.001182
486.238487	1.002046
486.607036	1.002054
486.975527	1.001261
487.343959	1.001175
487.712333	1.001435
488.080648	1.001213
488.448905	1.001297
488.817104	1.001809
489.185244	1.001770
489.553326	1.001609
489.921350	1.000921
490.289315	1.002009
490.657222	1.001547
491.025070	1.002009
491.392861	1.002154
491.760593	1.002377
492.128267	1.001593
492.495883	1.001641
492.863440	1.001694
493.230939	1.001392
493.598380	1.002544
493.965763	1.001722
494.333088	1.002366
494.700354	1.001446
495.067563	1.001398
495.434713	1.001535
495.801805	1.002577
496.168839	1.002040
496.535815	1.001159
496.902733	1.001333
497.269593	1.001362
497.636395	1.002148
498.003139	1.001831
498.369825	1.002108
498.736453	1.001747
499.103023	1.001159
499.469535	1.001224
499.835989	1.001679
500.202385	1.000971
500.568723	1.001946
500.935003	1.002244
501.301226	1.001953
501.667390	1.001457
502.033497	1.001917
502.399546	1.001914
502.765537	1.000731
503.131470	1.001488
503.497345	1.001194
503.863163	1.002821
504.228923	1.002072
504.594625	1.001522
504.960269	1.002123
505.325856	1.001554
505.691385	1.001418
506.056856	1.001689
506.422270	1.001549
506.787625	1.001840
507.152924	1.001632
507.518164	1.001437
507.883347	1.002029
508.248472	1.001288
508.613540	1.001621
508.978550	1.002172
509.343503	1.001652
509.708398	1.002115
510.073236	1.002113
510.438016	1.001816
510.802738	1.001966
511.167403	1.001746
511.532010	1.001889
511.896561	1.001092
512.261053	1.002624
512.625488	1.001506
512.989866	1.001367
513.354186	1.001482
513.718449	1.001859
514.082655	1.001596
514.446803	1.001847
514.810894	1.001499
515.174927	1.001440
515.538904	1.001530
515.902822	1.001578
516.266684	1.001741
516.630488	1.002392
516.994235	1.000941
517.357925	1.001563
517.721558	1.001858
518.085133	1.001246
518.448651	1.002286
518.812112	1.001286
519.175516	1.001051
519.538863	1.001996
519.902152	1.001602
520.265385	1.001173
520.628560	1.001213
520.991678	1.001797
521.354739	1.002408
521.717743	1.001698
522.080690	1.001773
522.443580	1.001632
522.806413	1.002047
523.169189	1.001500
523.531908	1.001711
523.894569	1.001286
524.257174	1.001463
524.619722	1.002368
524.982213	1.001356
525.344647	1.002414
525.707025	1.001135
526.069345	1.000878
526.431608	1.001558
526.793815	1.001874
527.155964	1.001874
527.518057	1.002073
527.880093	1.002112
528.242072	1.001588
528.603995	1.001504
528.965860	1.002393
529.327669	1.001500
529.689421	1.001048
530.051117	1.001744
530.412755	1.001293
530.774337	1.001870
531.135862	1.001521
531.497331	1.001254
531.858743	1.002085
532.220098	1.001344
532.581396	1.001838
532.942638	1.001993
533.303824	1.001783
533.664953	1.001707
534.026025	1.001479
534.387040	1.001598
534.747999	1.002062
535.108902	1.001676
535.469748	1.001423
535.830537	1.001824
536.191270	1.001643
536.551947	1.001626
536.912567	1.001636
537.273131	1.002793
537.633638	1.001706
537.994089	1.001695
538.354483	1.001567
538.714821	1.001979
539.075103	1.001471
539.435328	1.001504
539.795497	1.001398
540.155609	1.001873
540.515665	1.002115
540.875665	1.001005
541.235609	1.001947
541.595496	1.001562
541.955328	1.001028
542.315102	1.001870
542.674821	1.001299
543.034483	1.001416
543.394090	1.000907
543.753640	1.001078
544.113134	1.001591
544.472571	1.002037
544.831953	1.001749
545.191278	1.001358
545.550548	1.001955
545.909761	1.001191
546.268918	1.002056
546.628019	1.001663
546.987064	1.000805
547.346053	1.001582
547.704986	1.001688
548.063863	1.001774
548.422684	1.001761
548.781449	1.001182
549.140158	1.000805
549.498811	1.001327
549.857408	1.001853
550.215949	1.001568
550.574434	1.001691
550.932864	1.001709
551.291237	1.001736
551.649555	1.002157
552.007817	1.001388
552.366022	1.001033
552.724173	1.002377
553.082267	1.001319
553.440305	1.001677
553.798288	1.001822
554.156215	1.001164
554.514086	1.001813
554.871902	1.000805
555.229661	1.001449
555.587365	1.001468
555.945014	1.001966
556.302606	1.001005
556.660143	1.001802
557.017625	1.001459
557.375050	1.001565
557.732421	1.001481
558.089735	1.001953
558.446994	1.001989
558.804197	1.002072
559.161345	1.002392
559.518437	1.002516
559.875474	1.000746
560.232455	1.001361
560.589381	1.001795
560.946251	1.000010
561.303065	1.000905
561.659825	1.001412
562.016528	1.001168
562.373177	1.001914
562.729770	1.001289
563.086307	1.001607
563.442789	1.000978
563.799216	1.001616
564.155587	1.001238
564.511904	1.000888
564.868164	1.000911
565.224370	1.001269
565.580520	1.001420
565.936615	1.000477
566.292654	1.001194
566.648638	1.001810
567.004567	1.000606
567.360441	1.001546
567.716260	1.001782
568.072023	1.000847
568.427732	1.001033
568.783385	1.001872
569.138982	1.001032
569.494525	1.001067
569.850013	1.001149
570.205445	1.000901
570.560823	1.001744
570.916145	1.000403
571.271412	1.001636
571.626625	1.001522
571.981782	1.001544
572.336884	1.002117
572.691931	1.001681
573.046923	1.001087
573.401860	1.001918
573.756743	1.001301
574.111570	1.001587
574.466342	1.001238
574.821059	1.001483
575.175722	1.001451
575.530330	1.001828
575.884882	1.001407
576.239380	1.001979
576.593823	1.001364
576.948211	1.000770
577.302544	1.001249
577.656823	1.001167
578.011047	1.002104
578.365216	1.001504
578.719330	1.000684
579.073389	1.001253
579.427394	1.001555
579.781344	1.002127
580.135239	1.000429
580.489080	1.001449
580.842866	1.001527
581.196597	1.001672
581.550273	1.001552
581.903895	1.001644
582.257463	1.001457
582.610975	1.001538
582.964434	1.001027
583.317837	1.002083
583.671186	1.001169
584.024481	1.001427
584.377721	1.002025
584.730906	1.001678
585.084037	1.001211
585.437113	1.000968
585.790135	1.001984
586.143103	1.001039
586.496016	1.001949
586.848874	1.001491
587.201679	1.001390
587.554428	1.001412
587.907124	1.001546
588.259765	1.001601
588.612352	1.002361
588.964884	1.001402
589.317362	1.001998
589.669786	1.002215
590.022155	1.001634
590.374470	1.000956
590.726731	1.001009
591.078937	1.001057
591.431090	1.001216
591.783188	1.001594
592.135232	1.001149
592.487222	1.001805
592.839157	1.000907
593.191038	1.001279
593.542866	1.000830
593.894639	1.001852
594.246358	1.001397
594.598022	1.001363
594.949633	1.001467
595.301190	1.000567
595.652692	1.001626
596.004141	1.002084
596.355535	1.001535
596.706876	1.001345
597.058162	1.001824
597.409395	1.001471
597.760573	1.001522
598.111698	1.001113
598.462768	1.001221
598.813785	1.001144
599.164748	1.001555
599.515657	1.000732
599.866511	1.000924
600.217312	1.001064
600.568060	1.001298
600.918753	1.001740
601.269392	1.002098
601.619978	1.001068
601.970510	1.001906
602.320988	1.001992
602.671412	1.000907
603.021783	1.000703
603.372100	1.002143
603.722363	1.002206
604.072572	1.001002
604.422728	1.001529
604.772830	1.001528
605.122878	1.000928
605.472872	1.001938
605.822813	1.000860
606.172701	1.001152
606.522534	1.001492
606.872314	1.001528
607.222041	1.000944
607.571714	1.002181
607.921333	1.000924
608.270899	1.002146
608.620411	1.001471
608.969870	1.001492
609.319276	1.001472
609.668627	1.001374
610.017926	1.000933
610.367171	1.001613
610.716362	1.001038
611.065500	1.000956
611.414585	1.001326
611.763616	1.001750
612.112594	1.001498
612.461518	1.001195
612.810389	1.001470
613.159207	1.001412
613.507971	1.001371
613.856682	1.001460
614.205340	1.001642
614.553945	1.000267
614.902496	1.001522
615.250994	1.001514
615.599439	1.001435
615.947830	1.001124
616.296169	1.001218
616.644454	1.000757
616.992686	1.001094
617.340864	1.001333
617.688990	1.001389
618.037063	1.001461
618.385082	1.000935
618.733048	1.000700
619.080961	1.001487
619.428821	1.001321
619.776628	1.001399
620.124382	1.000814
620.472083	1.000301
620.819731	1.000827
621.167326	1.001152
621.514868	1.001510
621.862357	1.001273
622.209793	1.001801
622.557176	1.000263
622.904506	1.001033
623.251783	1.000291
623.599007	1.000720
623.946179	1.001404
624.293297	1.001201
624.640363	1.000524
624.987376	1.000297
625.334336	1.001482
625.681243	1.000692
626.028097	1.001386
626.374899	1.001635
626.721647	1.001610
627.068343	1.001832
627.414987	1.000407
627.761577	1.001371
628.108115	1.001001
628.454600	1.001293
628.801032	1.000267
629.147412	1.001557
629.493739	1.000531
629.840014	1.000838
630.186236	1.001272
630.532405	1.001105
630.878521	1.001517
631.224585	1.001189
631.570597	1.000901
631.916556	1.001096
632.262462	1.000815
632.608316	1.001096
632.954117	1.000132
633.299866	1.000448
633.645562	1.001031
633.991206	1.001832
634.336797	1.002068
634.682336	1.000963
635.027823	1.000908
635.373257	1.001710
635.718639	1.001752
636.063968	1.001325
636.409245	1.001149
636.754470	1.001938
637.099642	1.001547
637.444762	1.001118
637.789829	1.000640
638.134845	1.000750
638.479808	1.001207
638.824719	1.001025
639.169577	1.000933
639.514383	1.001198
639.859137	1.000747
640.203839	1.001490
640.548489	1.001028
640.893086	1.001417
641.237632	1.001412
641.582125	1.000070
641.926566	0.999776
642.270955	1.001106
642.615292	1.001776
642.959576	1.001010
643.303809	1.000432
643.647990	0.999790
643.992118	1.000802
644.336195	1.000812
644.680219	1.001255
645.024192	1.001737
645.368112	1.001060
645.711981	1.000992
646.055797	1.000684
646.399562	1.000121
646.743274	0.999835
647.086935	1.001465
647.430544	1.000879
647.774101	1.000557
648.117606	1.000480
648.461059	1.000395
648.804460	1.000865
649.147810	1.001232
649.491108	1.001006
649.834354	1.000737
650.177548	1.001188
650.520690	1.001123
650.863781	1.000621
651.206820	1.001478
651.549807	1.001681
651.892742	1.001239
652.235626	1.000475
652.578458	1.001241
652.921238	1.000216
653.263967	1.001368
653.606644	1.001538
653.949269	1.001054
654.291843	1.000582
654.634365	1.001047
654.976836	1.000578
655.319255	1.000695
655.661622	1.000964
656.003938	1.000271
656.346203	1.000879
656.688416	1.000975
657.030577	1.000960
657.372687	1.000634
657.714746	1.000476
658.056753	1.000180
658.398708	1.000844
658.740612	1.000764
659.082465	1.000644
659.424266	1.000345
659.766016	1.000310
660.107715	1.000027
660.449362	1.001011
660.790958	1.000955
661.132503	0.999375
661.473996	1.000160
661.815438	1.000428
662.156829	0.999828
662.498168	1.000654
662.839456	0.999689
663.180693	1.000918
663.521879	1.000379
663.863013	1.000655
664.204097	1.000757
664.545129	1.000664
664.886110	1.001400
665.227040	1.000534
665.567918	0.999739
665.908746	1.000479
666.249522	1.000079
666.590248	1.000334
666.930922	1.000942
667.271545	1.000717
667.612118	1.000166
667.952639	0.999758
668.293109	1.000181
668.633528	1.000344
668.973896	1.000839
669.314213	1.000291
669.654480	1.000897
669.994695	1.000110
670.334859	1.000266
670.674973	0.999575
671.015035	1.000747
671.355047	0.999480
671.695008	1.000661
672.034918	0.998966
672.374777	0.999582
672.714585	0.999811
673.054342	1.000182
673.394049	0.999324
673.733705	0.999536
674.073310	0.999800
674.412864	1.000291
674.752368	0.999655
675.091820	1.000626
675.431223	1.000062
675.770574	1.000019
676.109875	1.000078
676.449125	0.999159
676.788324	0.999471
677.127473	1.000339
677.466571	0.999283
677.805619	0.999458
678.144616	0.999569
678.483562	0.999452
678.822458	0.999731
679.161303	0.999829
679.500098	0.999309
679.838842	0.999534
680.177535	0.999931
680.516179	0.999311
680.854771	0.999873
681.193314	0.999549
681.531805	0.999181
681.870247	0.998814
682.208638	0.998559
682.546978	0.998915
682.885268	0.998555
683.223508	0.998932
683.561697	0.998533
683.899836	0.998724
684.237925	0.998586
684.575963	0.998761
684.913951	0.997636
685.251889	0.998489
685.589776	0.998029
685.927614	0.998216
686.265401	0.998726
686.603137	0.997853
686.940824	0.997207
687.278460	0.997313
687.616046	0.996811
687.953582	0.997205
688.291068	0.997283
688.628504	0.998265
