Dividing Wavelength (nm)	Counts (n)	Blue Motor Position (mm): 0.000000	Red Motor Position (mm): 47.500000	
326.493990	0.999283
326.888308	0.999283
327.282561	0.999283
327.676750	0.999846
328.070874	0.998872
328.464933	0.999794
328.858929	0.998984
329.252859	0.999801
329.646726	0.999700
330.040528	1.000177
330.434265	1.000180
330.827938	0.999859
331.221547	0.999950
331.615091	0.999614
332.008571	1.000079
332.401986	1.000191
332.795338	1.000032
333.188625	0.998037
333.581847	1.000274
333.975006	1.000375
334.368100	0.998951
334.761129	0.999688
335.154095	1.000938
335.546996	0.999520
335.939833	0.998357
336.332606	0.999763
336.725315	1.000246
337.117960	1.001979
337.510540	1.000059
337.903056	1.000196
338.295508	0.999747
338.687896	1.001623
339.080220	1.000593
339.472480	0.998383
339.864676	0.999817
340.256807	1.000024
340.648875	1.000623
341.040879	1.000884
341.432818	1.000731
341.824694	1.000170
342.216506	1.001377
342.608253	1.000462
342.999937	0.999115
343.391557	0.999948
343.783113	1.000192
344.174605	0.999968
344.566033	1.000353
344.957397	0.998014
345.348697	0.999936
345.739934	1.000000
346.131106	0.998088
346.522215	0.999880
346.913260	0.999372
347.304241	0.999069
347.695159	1.000191
348.086012	0.999689
348.476802	0.999102
348.867528	0.999848
349.258191	0.998819
349.648789	1.000405
350.039324	0.999370
350.429796	1.001645
350.820203	0.999493
351.210548	1.000688
351.600828	0.999045
351.991045	0.999946
352.381198	1.000125
352.771288	1.000026
353.161314	0.999634
353.551276	1.001264
353.941175	1.000428
354.331010	0.999965
354.720782	1.001092
355.110490	0.999665
355.500135	1.001336
355.889717	1.000546
356.279235	0.999782
356.668689	0.999763
357.058080	1.000219
357.447408	1.000648
357.836672	1.001163
358.225873	1.000653
358.615010	1.001291
359.004084	1.000784
359.393095	0.999471
359.782043	1.000392
360.170927	1.000889
360.559748	1.001892
360.948505	0.999928
361.337199	1.000804
361.725830	0.999401
362.114398	1.000277
362.502903	1.000886
362.891344	1.000779
363.279722	0.998959
363.668037	1.000953
364.056289	1.000088
364.444478	1.000237
364.832603	0.999544
365.220665	0.999249
365.608665	1.000632
365.996601	0.999576
366.384474	1.000042
366.772284	0.999527
367.160031	0.999931
367.547715	0.999774
367.935336	1.000112
368.322893	0.999973
368.710388	0.999282
369.097820	0.999393
369.485189	1.000283
369.872495	1.000099
370.259738	0.998769
370.646918	1.001967
371.034035	1.001125
371.421090	0.999401
371.808081	0.999745
372.195010	0.999545
372.581875	1.000559
372.968678	1.000343
373.355418	0.999538
373.742096	1.000055
374.128710	1.001496
374.515262	0.998758
374.901751	1.000281
375.288177	0.999868
375.674540	1.001150
376.060841	0.998983
376.447079	1.000998
376.833254	1.000469
377.219367	1.000240
377.605417	1.001070
377.991404	0.999649
378.377329	0.999569
378.763191	0.999785
379.148991	1.000975
379.534727	1.000970
379.920402	1.000745
380.306013	1.000307
380.691563	1.000343
381.077049	1.000461
381.462474	1.001315
381.847835	1.001853
382.233134	1.000114
382.618371	1.001252
383.003545	1.000130
383.388657	1.001243
383.773706	1.001612
384.158693	1.000995
384.543618	1.000877
384.928480	1.000615
385.313280	0.999755
385.698017	1.001077
386.082692	1.000646
386.467305	1.001357
386.851856	0.999760
387.236344	1.000368
387.620770	1.000244
388.005133	1.000624
388.389435	1.001634
388.773674	1.000445
389.157851	1.000623
389.541965	0.999802
389.926018	1.000277
390.310008	1.001773
390.693936	1.000299
391.077802	1.001231
391.461606	1.000651
391.845348	1.001013
392.229027	1.001875
392.612645	1.000875
392.996200	1.001973
393.379694	1.000272
393.763125	1.001185
394.146494	1.000926
394.529801	1.000253
394.913047	1.001406
395.296230	1.000544
395.679351	1.000640
396.062410	1.000405
396.445408	1.001071
396.828343	1.000330
397.211217	0.999442
397.594028	1.001738
397.976778	1.000499
398.359466	1.000020
398.742092	1.000664
399.124656	1.000189
399.507158	1.001451
399.889598	1.000510
400.271977	1.000814
400.654294	1.001000
401.036549	1.001349
401.418742	1.001468
401.800874	1.000047
402.182944	1.000490
402.564952	0.999784
402.946898	1.001089
403.328783	1.000794
403.710606	0.999941
404.092367	1.000367
404.474067	1.000716
404.855705	1.000141
405.237282	1.001083
405.618797	1.000722
406.000250	0.999917
406.381642	1.000750
406.762972	1.000760
407.144240	1.001445
407.525447	1.001054
407.906593	1.001853
408.287677	1.001908
408.668700	1.001710
409.049661	1.000095
409.430560	1.001578
409.811399	1.000700
410.192176	1.000114
410.572891	1.000590
410.953545	1.001091
411.334138	1.000054
411.714669	1.001439
412.095139	1.000361
412.475547	1.001678
412.855894	1.001355
413.236180	1.001153
413.616405	1.001370
413.996568	1.001108
414.376670	1.000343
414.756711	1.000714
415.136691	1.001394
415.516609	1.001509
415.896466	1.000452
416.276262	1.000210
416.655997	1.001197
417.035670	1.000154
417.415283	1.000785
417.794834	1.000396
418.174324	1.001047
418.553753	1.000875
418.933121	1.000002
419.312428	1.000195
419.691674	1.000106
420.070859	1.000692
420.449983	1.001117
420.829045	1.000877
421.208047	1.001970
421.586988	1.001635
421.965867	1.000272
422.344686	1.001564
422.723444	1.001200
423.102141	1.000834
423.480777	1.001191
423.859352	1.000527
424.237866	1.000728
424.616319	1.001001
424.994712	1.000953
425.373044	1.000949
425.751314	1.000688
426.129524	1.001085
426.507673	1.000798
426.885762	1.000962
427.263789	1.001000
427.641756	1.001285
428.019662	1.001730
428.397508	1.000516
428.775292	1.000304
429.153016	1.000537
429.530679	1.001078
429.908282	1.001521
430.285824	1.001171
430.663305	1.000758
431.040726	1.001331
431.418086	1.001897
431.795385	1.001528
432.172624	1.001005
432.549802	1.001335
432.926920	1.001109
433.303977	1.000059
433.680974	1.001356
434.057910	1.000423
434.434786	1.001450
434.811601	1.000909
435.188355	1.000444
435.565050	1.000342
435.941683	1.000234
436.318257	1.001545
436.694770	1.000837
437.071222	1.001722
437.447614	1.001640
437.823946	1.000637
438.200218	1.001128
438.576429	1.000791
438.952580	1.001464
439.328670	1.000828
439.704700	1.001718
440.080670	1.001096
440.456580	1.000907
440.832429	1.000179
441.208218	1.002024
441.583947	1.001619
441.959616	1.001203
442.335224	1.000955
442.710773	1.001734
443.086261	1.000473
443.461689	1.000443
443.837057	1.001254
444.212365	1.000687
444.587612	1.000920
444.962800	1.000899
445.337927	1.001184
445.712995	1.001625
446.088002	1.001393
446.462949	1.001748
446.837837	1.001398
447.212664	1.001088
447.587431	1.000951
447.962139	1.000028
448.336786	1.000653
448.711374	1.001180
449.085901	1.001189
449.460369	1.001586
449.834776	1.000821
450.209124	1.001014
450.583412	1.000833
450.957640	1.000871
451.331808	1.000554
451.705917	1.000988
452.079965	1.000893
452.453954	1.000800
452.827883	1.001370
453.201752	1.000837
453.575562	1.002166
453.949311	1.001514
454.323001	1.000740
454.696632	1.001200
455.070202	1.000806
455.443713	1.000496
455.817164	1.001763
456.190556	1.000806
456.563888	1.001065
456.937160	1.001101
457.310373	1.000363
457.683526	1.000664
458.056619	1.000630
458.429653	1.001396
458.802628	1.000827
459.175542	1.000401
459.548398	1.001107
459.921194	1.001092
460.293930	1.001254
460.666607	1.000511
461.039224	0.999630
461.411782	1.000138
461.784280	1.000361
462.156719	1.001617
462.529099	1.001636
462.901419	1.001312
463.273680	1.001126
463.645882	1.001621
464.018024	1.000802
464.390106	1.001747
464.762130	1.001715
465.134094	0.999787
465.505999	1.000460
465.877845	1.000230
466.249631	1.001487
466.621358	1.001244
466.993026	1.001298
467.364634	1.001260
467.736184	1.002094
468.107674	1.001249
468.479105	1.000754
468.850477	1.001727
469.221790	1.001613
469.593043	1.001917
469.964238	1.002040
470.335373	1.000566
470.706449	1.001519
471.077467	1.001778
471.448425	1.001980
471.819324	1.001607
472.190164	1.000688
472.560945	1.001250
472.931667	1.000928
473.302330	1.000595
473.672934	1.001398
474.043479	1.001193
474.413965	1.001272
474.784393	1.001330
475.154761	1.001001
475.525070	1.001138
475.895321	1.001810
476.265513	1.001067
476.635645	1.001128
477.005719	1.001039
477.375734	1.000680
477.745691	1.001462
478.115588	1.001379
478.485427	1.001309
478.855207	1.001442
479.224928	1.000674
479.594591	1.001162
479.964194	1.000897
480.333739	1.000989
480.703226	1.001404
481.072653	1.002254
481.442022	1.001296
481.811333	1.000380
482.180584	1.001701
482.549777	1.001029
482.918912	1.001123
483.287988	1.001152
483.657005	1.001307
484.025964	1.002186
484.394864	1.001960
484.763706	1.001854
485.132489	1.002418
485.501213	1.001528
485.869879	1.001439
486.238487	1.001782
486.607036	1.001310
486.975527	1.000418
487.343959	1.001035
487.712333	1.001230
488.080648	1.000788
488.448905	1.001170
488.817104	1.001530
489.185244	1.001637
489.553326	1.001122
489.921350	1.001095
490.289315	1.001140
490.657222	1.001313
491.025070	1.000981
491.392861	1.001582
491.760593	1.001723
492.128267	1.001348
492.495883	1.001723
492.863440	1.001146
493.230939	1.000662
493.598380	1.000279
493.965763	1.001302
494.333088	1.001737
494.700354	1.000676
495.067563	1.000751
495.434713	1.000751
495.801805	1.001751
496.168839	1.001299
496.535815	1.001037
496.902733	1.001124
497.269593	1.001245
497.636395	1.000749
498.003139	1.000963
498.369825	1.001906
498.736453	1.000857
499.103023	1.000854
499.469535	1.001075
499.835989	1.000904
500.202385	1.000675
500.568723	1.000981
500.935003	1.001250
501.301226	1.001602
501.667390	1.001231
502.033497	1.000999
502.399546	1.000941
502.765537	1.000802
503.131470	1.000465
503.497345	1.000584
503.863163	1.001623
504.228923	1.001025
504.594625	1.001086
504.960269	1.001473
505.325856	1.001061
505.691385	1.000799
506.056856	1.000751
506.422270	1.001170
506.787625	1.001269
507.152924	1.001237
507.518164	1.000883
507.883347	1.000977
508.248472	1.000792
508.613540	1.001311
508.978550	1.001264
509.343503	1.001293
509.708398	1.001658
510.073236	1.001158
510.438016	1.001808
510.802738	1.001145
511.167403	1.001301
511.532010	1.001456
511.896561	1.001115
512.261053	1.002816
512.625488	1.001067
512.989866	1.000834
513.354186	1.001317
513.718449	1.001246
514.082655	1.001086
514.446803	1.001639
514.810894	1.001845
515.174927	1.001074
515.538904	1.000934
515.902822	1.001256
516.266684	1.001403
516.630488	1.002079
516.994235	1.000493
517.357925	1.000972
517.721558	1.001298
518.085133	1.000322
518.448651	1.001691
518.812112	1.001644
519.175516	1.001049
519.538863	1.001418
519.902152	1.000623
520.265385	1.000936
520.628560	1.001209
520.991678	1.001419
521.354739	1.001300
521.717743	1.001509
522.080690	1.001234
522.443580	1.001204
522.806413	1.001209
523.169189	1.000963
523.531908	1.000183
523.894569	1.001074
524.257174	1.001501
524.619722	1.001570
524.982213	1.001200
525.344647	1.001423
525.707025	1.000987
526.069345	1.000988
526.431608	1.001391
526.793815	1.001403
527.155964	1.000918
527.518057	1.001297
527.880093	1.001777
528.242072	1.000649
528.603995	1.001364
528.965860	1.002207
529.327669	1.000884
529.689421	1.000796
530.051117	1.001867
530.412755	1.001108
530.774337	1.001826
531.135862	1.001376
531.497331	1.001564
531.858743	1.001254
532.220098	1.001344
532.581396	1.002153
532.942638	1.002205
533.303824	1.001652
533.664953	1.001706
534.026025	1.001027
534.387040	1.001483
534.747999	1.000988
535.108902	1.001186
535.469748	1.000670
535.830537	1.000807
536.191270	1.001154
536.551947	1.000662
536.912567	1.001355
537.273131	1.001645
537.633638	1.000759
537.994089	1.000691
538.354483	1.001171
538.714821	1.001050
539.075103	1.000933
539.435328	1.000983
539.795497	1.001308
540.155609	1.000752
540.515665	1.000883
540.875665	1.001235
541.235609	1.000833
541.595496	1.000625
541.955328	1.000493
542.315102	1.001394
542.674821	1.000639
543.034483	1.000798
543.394090	1.000293
543.753640	1.001918
544.113134	1.001377
544.472571	1.001670
544.831953	1.001577
545.191278	1.001248
545.550548	1.002098
545.909761	1.000766
546.268918	1.001023
546.628019	1.001228
546.987064	1.001164
547.346053	1.001113
547.704986	1.002051
548.063863	1.001117
548.422684	1.001534
548.781449	1.002139
549.140158	1.000631
549.498811	1.001989
549.857408	1.001655
550.215949	1.001172
550.574434	1.000925
550.932864	1.001041
551.291237	1.001443
551.649555	1.000941
552.007817	1.001347
552.366022	1.000620
552.724173	1.001313
553.082267	1.001529
553.440305	1.000931
553.798288	1.001398
554.156215	1.001254
554.514086	1.001406
554.871902	1.000479
555.229661	1.000949
555.587365	1.000826
555.945014	1.001813
556.302606	1.000792
556.660143	1.000801
557.017625	1.001198
557.375050	1.001334
557.732421	1.000972
558.089735	1.001393
558.446994	1.001819
558.804197	1.001331
559.161345	1.002147
559.518437	1.001273
559.875474	1.000638
560.232455	1.001171
560.589381	1.001467
560.946251	1.000219
561.303065	1.001316
561.659825	1.001183
562.016528	1.000824
562.373177	1.001015
562.729770	1.000915
563.086307	1.001341
563.442789	1.001508
563.799216	1.001358
564.155587	1.000584
564.511904	1.000816
564.868164	1.000762
565.224370	1.000675
565.580520	1.001204
565.936615	1.001486
566.292654	1.000702
566.648638	1.001457
567.004567	1.000688
567.360441	1.001455
567.716260	1.001013
568.072023	1.001420
568.427732	1.001494
568.783385	1.001680
569.138982	1.001428
569.494525	1.000404
569.850013	1.001162
570.205445	1.001246
570.560823	1.001509
570.916145	1.000781
571.271412	1.001306
571.626625	1.001053
571.981782	1.000146
572.336884	1.001281
572.691931	1.001078
573.046923	1.000079
573.401860	1.001180
573.756743	1.000998
574.111570	1.001223
574.466342	1.001034
574.821059	1.001228
575.175722	1.000654
575.530330	1.001056
575.884882	1.001127
576.239380	1.001374
576.593823	1.001226
576.948211	0.999974
577.302544	1.000781
577.656823	1.001024
578.011047	1.000842
578.365216	1.001077
578.719330	1.000911
579.073389	1.001609
579.427394	1.001424
579.781344	1.001173
580.135239	1.000774
580.489080	1.001462
580.842866	1.001720
581.196597	1.000996
581.550273	1.000292
581.903895	1.001314
582.257463	1.000899
582.610975	1.001352
582.964434	1.000968
583.317837	1.001390
583.671186	1.000647
584.024481	1.000660
584.377721	1.001051
584.730906	1.001401
585.084037	1.001601
585.437113	1.000770
585.790135	1.001161
586.143103	1.001340
586.496016	1.001377
586.848874	1.001074
587.201679	1.001093
587.554428	1.000380
587.907124	1.000638
588.259765	1.001295
588.612352	1.002238
588.964884	1.001221
589.317362	1.000875
589.669786	1.001504
590.022155	1.001277
590.374470	1.001246
590.726731	1.000935
591.078937	1.000090
591.431090	1.000615
591.783188	1.000692
592.135232	1.001027
592.487222	1.001033
592.839157	1.000546
593.191038	1.001677
593.542866	1.001022
593.894639	1.001069
594.246358	1.000392
594.598022	1.000542
594.949633	1.001025
595.301190	1.000754
595.652692	1.000571
596.004141	1.001410
596.355535	1.000388
596.706876	1.000646
597.058162	1.000855
597.409395	1.001246
597.760573	1.000617
598.111698	0.999738
598.462768	1.000377
598.813785	1.000843
599.164748	1.000831
599.515657	1.000570
599.866511	1.000694
600.217312	1.000506
600.568060	1.000853
600.918753	1.001268
601.269392	1.000380
601.619978	1.000617
601.970510	1.000863
602.320988	1.000893
602.671412	1.000884
603.021783	1.001051
603.372100	1.001644
603.722363	1.001435
604.072572	1.000746
604.422728	1.000806
604.772830	1.000977
605.122878	1.000784
605.472872	1.000928
605.822813	0.999495
606.172701	1.000325
606.522534	1.001722
606.872314	1.000670
607.222041	1.000272
607.571714	1.001073
607.921333	1.000349
608.270899	1.000417
608.620411	1.001445
608.969870	1.001474
609.319276	1.000756
609.668627	1.001753
610.017926	0.999856
610.367171	1.001107
610.716362	1.000496
611.065500	1.000868
611.414585	1.000596
611.763616	1.001042
612.112594	1.000505
612.461518	1.001359
612.810389	1.001195
613.159207	1.001187
613.507971	1.000680
613.856682	1.001360
614.205340	1.001361
614.553945	1.000070
614.902496	1.001051
615.250994	1.000468
615.599439	1.000494
615.947830	1.000086
616.296169	1.000811
616.644454	1.000263
616.992686	1.000313
617.340864	1.000356
617.688990	1.001082
618.037063	1.001420
618.385082	1.000550
618.733048	1.000164
619.080961	1.000531
619.428821	1.000653
619.776628	1.000271
620.124382	1.001221
620.472083	0.998934
620.819731	1.000946
621.167326	1.000975
621.514868	0.999998
621.862357	1.000701
622.209793	1.000885
622.557176	0.999444
622.904506	1.000522
623.251783	0.999591
623.599007	1.001172
623.946179	1.001459
624.293297	1.000387
624.640363	1.000521
624.987376	1.000394
625.334336	1.001402
625.681243	1.000511
626.028097	1.000531
626.374899	1.000832
626.721647	1.000838
627.068343	1.000823
627.414987	1.000469
627.761577	1.000837
628.108115	1.000880
628.454600	1.001731
628.801032	0.999867
629.147412	1.001166
629.493739	0.999644
629.840014	1.000280
630.186236	1.001004
630.532405	1.000620
630.878521	0.999869
631.224585	1.000174
631.570597	1.000681
631.916556	0.999939
632.262462	1.000807
632.608316	1.000257
632.954117	0.999828
633.299866	1.000728
633.645562	1.000523
633.991206	1.001237
634.336797	1.000952
634.682336	1.000077
635.027823	1.000891
635.373257	1.001008
635.718639	1.001909
636.063968	0.999827
636.409245	1.000805
636.754470	1.001082
637.099642	1.001268
637.444762	1.001265
637.789829	1.001117
638.134845	1.000487
638.479808	1.000813
638.824719	1.001277
639.169577	1.000593
639.514383	1.000515
639.859137	1.000900
640.203839	1.000711
640.548489	1.000084
640.893086	1.000975
641.237632	1.001308
641.582125	0.999601
641.926566	1.000184
642.270955	1.000811
642.615292	1.000715
642.959576	1.001356
643.303809	1.000427
643.647990	1.000842
643.992118	1.000294
644.336195	1.000943
644.680219	1.000658
645.024192	1.000918
645.368112	0.999689
645.711981	1.000521
646.055797	1.000902
646.399562	0.999930
646.743274	0.999722
647.086935	1.000239
647.430544	1.000171
647.774101	1.000632
648.117606	0.999938
648.461059	0.999816
648.804460	0.999657
649.147810	0.999806
649.491108	1.000717
649.834354	1.000256
650.177548	1.000773
650.520690	1.000608
650.863781	1.000359
651.206820	1.000702
651.549807	1.001068
651.892742	1.001052
652.235626	1.001098
652.578458	1.000781
652.921238	1.000748
653.263967	1.000611
653.606644	1.000802
653.949269	0.999692
654.291843	1.000411
654.634365	1.000342
654.976836	1.000457
655.319255	1.000743
655.661622	1.000662
656.003938	1.000580
656.346203	1.000656
656.688416	1.000899
657.030577	1.001053
657.372687	1.000004
657.714746	0.999785
658.056753	1.000620
658.398708	1.000750
658.740612	0.999704
659.082465	1.000565
659.424266	1.000732
659.766016	0.999698
660.107715	0.999584
660.449362	1.000086
660.790958	1.000394
661.132503	0.998967
661.473996	0.999913
661.815438	1.000310
662.156829	1.000416
662.498168	1.000014
662.839456	1.000102
663.180693	1.001116
663.521879	1.000335
663.863013	1.000948
664.204097	1.001109
664.545129	1.000254
664.886110	1.000481
665.227040	1.000317
665.567918	1.000161
665.908746	1.000234
666.249522	0.999945
666.590248	1.000242
666.930922	1.000432
667.271545	1.000405
667.612118	1.000047
667.952639	1.001046
668.293109	1.000615
668.633528	1.000756
668.973896	1.000224
669.314213	1.000242
669.654480	1.000008
669.994695	1.000889
670.334859	1.000158
670.674973	0.999942
671.015035	1.000220
671.355047	1.000063
671.695008	1.000036
672.034918	0.999506
672.374777	0.999846
672.714585	1.000041
673.054342	1.000552
673.394049	0.999323
673.733705	0.999724
674.073310	1.000701
674.412864	1.000801
674.752368	1.000018
675.091820	1.001992
675.431223	1.000657
675.770574	1.000619
676.109875	1.000725
676.449125	1.000216
676.788324	1.000394
677.127473	1.001815
677.466571	1.000368
677.805619	0.999764
678.144616	1.000358
678.483562	0.999476
678.822458	1.000457
679.161303	1.000622
679.500098	0.999922
679.838842	1.000804
680.177535	1.000687
680.516179	1.000652
680.854771	1.000345
681.193314	1.000271
681.531805	1.000768
681.870247	0.999913
682.208638	1.000723
682.546978	0.999923
682.885268	1.000208
683.223508	0.999863
683.561697	0.999700
683.899836	1.000400
684.237925	1.001244
684.575963	1.000112
684.913951	1.000000
685.251889	1.000652
685.589776	1.000021
685.927614	0.999729
686.265401	1.000322
686.603137	0.999913
686.940824	0.999619
687.278460	0.999117
687.616046	0.999653
687.953582	0.999275
688.291068	0.999936
688.628504	1.001325
