Dividing Wavelength (nm)	Counts (n)	Blue Motor Position (mm): 0.000000	Red Motor Position (mm): 46.800000	
326.493990	1.000995
326.888308	1.000995
327.282561	1.000995
327.676750	1.001340
328.070874	0.998389
328.464933	1.000323
328.858929	0.999542
329.252859	0.999649
329.646726	0.999238
330.040528	0.999999
330.434265	1.000603
330.827938	1.001295
331.221547	1.001459
331.615091	1.000321
332.008571	1.000991
332.401986	1.000323
332.795338	1.000683
333.188625	0.999246
333.581847	1.000728
333.975006	0.999969
334.368100	1.000612
334.761129	0.999932
335.154095	1.001142
335.546996	0.999916
335.939833	0.999869
336.332606	1.000222
336.725315	1.001668
337.117960	1.002310
337.510540	1.000486
337.903056	1.000729
338.295508	0.999005
338.687896	1.001167
339.080220	0.999913
339.472480	1.000657
339.864676	1.000234
340.256807	0.999869
340.648875	1.001812
341.040879	1.000504
341.432818	0.999975
341.824694	1.000438
342.216506	1.001041
342.608253	0.999802
342.999937	0.999717
343.391557	1.000266
343.783113	1.000129
344.174605	1.000546
344.566033	1.001473
344.957397	1.000191
345.348697	1.000429
345.739934	1.001002
346.131106	1.000822
346.522215	1.000244
346.913260	1.000589
347.304241	1.000827
347.695159	1.000202
348.086012	0.999657
348.476802	0.999927
348.867528	0.999550
349.258191	0.999685
349.648789	1.001201
350.039324	1.000665
350.429796	1.001488
350.820203	1.000105
351.210548	0.999988
351.600828	1.000047
351.991045	0.999903
352.381198	0.999623
352.771288	0.999963
353.161314	0.999932
353.551276	1.001170
353.941175	1.000224
354.331010	1.000908
354.720782	1.001541
355.110490	1.000037
355.500135	1.000547
355.889717	1.000517
356.279235	1.000598
356.668689	0.999950
357.058080	1.001201
357.447408	1.001332
357.836672	1.000731
358.225873	1.000786
358.615010	1.000047
359.004084	1.001694
359.393095	1.000574
359.782043	1.000173
360.170927	1.001683
360.559748	1.001016
360.948505	1.000002
361.337199	1.000091
361.725830	1.001036
362.114398	1.000050
362.502903	1.000893
362.891344	1.001382
363.279722	1.000294
363.668037	1.000484
364.056289	0.999598
364.444478	1.002556
364.832603	1.001105
365.220665	0.999299
365.608665	1.000215
365.996601	0.999572
366.384474	1.001695
366.772284	1.000969
367.160031	0.999276
367.547715	0.999398
367.935336	1.001710
368.322893	1.000145
368.710388	0.999848
369.097820	1.000769
369.485189	1.000252
369.872495	0.999387
370.259738	0.998237
370.646918	1.001352
371.034035	1.001956
371.421090	0.999877
371.808081	1.000472
372.195010	1.000784
372.581875	1.001501
372.968678	1.000755
373.355418	1.000128
373.742096	1.000676
374.128710	1.001170
374.515262	0.999534
374.901751	1.001629
375.288177	1.000975
375.674540	1.000819
376.060841	0.999527
376.447079	1.001387
376.833254	1.000375
377.219367	1.000550
377.605417	1.000807
377.991404	1.000981
378.377329	0.999451
378.763191	1.000122
379.148991	1.001139
379.534727	1.000943
379.920402	1.001575
380.306013	1.001350
380.691563	1.001977
381.077049	0.999462
381.462474	1.001138
381.847835	1.001312
382.233134	1.000708
382.618371	1.000355
383.003545	1.000791
383.388657	1.000057
383.773706	1.001590
384.158693	1.000786
384.543618	1.000872
384.928480	1.002724
385.313280	1.000488
385.698017	1.001332
386.082692	1.001317
386.467305	1.001595
386.851856	1.000798
387.236344	1.000861
387.620770	0.999751
388.005133	1.002287
388.389435	1.002266
388.773674	1.000464
389.157851	1.001945
389.541965	1.000777
389.926018	1.001539
390.310008	1.002198
390.693936	1.000754
391.077802	1.001557
391.461606	1.000966
391.845348	1.001763
392.229027	1.001810
392.612645	1.002198
392.996200	1.002240
393.379694	1.001128
393.763125	1.001474
394.146494	1.001822
394.529801	0.999960
394.913047	1.001700
395.296230	1.001504
395.679351	1.001049
396.062410	1.000184
396.445408	1.001312
396.828343	1.000866
397.211217	1.001387
397.594028	1.001705
397.976778	1.001191
398.359466	1.000225
398.742092	1.001062
399.124656	1.000471
399.507158	1.000541
399.889598	1.001468
400.271977	1.000462
400.654294	1.001383
401.036549	1.000817
401.418742	1.001514
401.800874	1.000456
402.182944	1.000666
402.564952	1.000312
402.946898	1.001260
403.328783	1.001211
403.710606	1.001551
404.092367	1.000813
404.474067	1.002024
404.855705	1.000960
405.237282	1.001285
405.618797	1.001098
406.000250	0.999577
406.381642	1.001771
406.762972	1.001254
407.144240	1.001838
407.525447	1.001135
407.906593	1.001028
408.287677	1.001151
408.668700	1.001766
409.049661	1.000014
409.430560	1.001083
409.811399	1.000422
410.192176	1.000549
410.572891	1.001232
410.953545	1.001113
411.334138	1.000297
411.714669	1.001503
412.095139	0.999738
412.475547	1.002014
412.855894	1.001771
413.236180	1.001416
413.616405	1.001272
413.996568	1.001058
414.376670	1.001133
414.756711	1.001266
415.136691	1.000982
415.516609	1.000532
415.896466	1.000769
416.276262	0.999686
416.655997	1.001609
417.035670	1.000248
417.415283	1.000672
417.794834	1.000477
418.174324	1.001563
418.553753	1.001733
418.933121	1.000417
419.312428	1.000457
419.691674	1.000508
420.070859	1.000793
420.449983	1.000852
420.829045	1.002305
421.208047	1.001785
421.586988	1.001638
421.965867	1.001033
422.344686	1.001710
422.723444	1.001252
423.102141	1.001211
423.480777	1.001598
423.859352	1.000879
424.237866	1.000334
424.616319	1.000730
424.994712	1.001091
425.373044	1.002092
425.751314	1.000612
426.129524	1.000853
426.507673	1.001258
426.885762	1.001479
427.263789	1.001070
427.641756	1.001333
428.019662	1.001498
428.397508	1.001016
428.775292	1.000174
429.153016	1.000499
429.530679	1.001326
429.908282	1.001569
430.285824	1.000086
430.663305	1.000125
431.040726	1.000637
431.418086	1.002372
431.795385	1.001782
432.172624	1.000591
432.549802	1.001340
432.926920	1.001027
433.303977	1.000505
433.680974	1.001671
434.057910	1.001084
434.434786	1.000847
434.811601	1.001145
435.188355	1.001554
435.565050	1.001325
435.941683	1.001169
436.318257	1.001249
436.694770	1.000188
437.071222	1.001218
437.447614	1.001139
437.823946	1.000714
438.200218	1.001873
438.576429	1.000994
438.952580	1.001121
439.328670	1.001001
439.704700	1.001676
440.080670	1.001577
440.456580	1.001094
440.832429	1.001237
441.208218	1.001143
441.583947	1.001219
441.959616	1.001975
442.335224	1.000599
442.710773	1.001912
443.086261	1.000500
443.461689	1.001793
443.837057	1.000491
444.212365	1.001302
444.587612	1.001651
444.962800	1.000454
445.337927	1.000819
445.712995	1.001243
446.088002	1.001776
446.462949	1.001613
446.837837	1.001217
447.212664	1.001118
447.587431	1.001158
447.962139	1.001294
448.336786	1.001027
448.711374	1.000895
449.085901	1.000912
449.460369	1.001492
449.834776	1.000614
450.209124	1.001502
450.583412	1.000802
450.957640	1.001219
451.331808	1.000667
451.705917	1.001287
452.079965	1.000692
452.453954	1.001311
452.827883	1.000809
453.201752	1.001042
453.575562	1.001368
453.949311	1.000871
454.323001	1.000722
454.696632	1.000771
455.070202	1.001256
455.443713	1.000398
455.817164	1.001495
456.190556	1.001081
456.563888	1.000632
456.937160	1.001670
457.310373	1.000792
457.683526	1.000553
458.056619	1.001314
458.429653	1.002134
458.802628	1.000393
459.175542	1.001081
459.548398	1.001530
459.921194	1.000106
460.293930	1.001342
460.666607	1.000272
461.039224	0.999349
461.411782	1.000522
461.784280	1.000268
462.156719	1.001278
462.529099	1.001359
462.901419	1.001101
463.273680	1.001201
463.645882	1.000914
464.018024	1.001541
464.390106	1.000605
464.762130	1.001429
465.134094	1.001214
465.505999	1.001103
465.877845	1.000944
466.249631	1.001258
466.621358	1.000585
466.993026	1.001307
467.364634	1.001299
467.736184	1.001356
468.107674	1.001676
468.479105	1.000794
468.850477	1.001341
469.221790	1.001007
469.593043	1.001863
469.964238	1.002155
470.335373	1.000865
470.706449	1.001066
471.077467	1.001706
471.448425	1.001279
471.819324	1.001844
472.190164	1.000941
472.560945	1.000722
472.931667	1.001192
473.302330	1.001243
473.672934	1.001727
474.043479	1.000914
474.413965	1.000266
474.784393	1.001342
475.154761	1.000792
475.525070	1.000294
475.895321	1.001440
476.265513	1.001079
476.635645	1.000522
477.005719	1.000796
477.375734	1.000750
477.745691	1.001258
478.115588	1.001006
478.485427	1.001495
478.855207	1.000816
479.224928	1.001076
479.594591	1.001315
479.964194	1.001265
480.333739	1.000774
480.703226	1.001089
481.072653	1.001916
481.442022	1.001594
481.811333	1.000811
482.180584	1.001260
482.549777	1.001052
482.918912	1.001507
483.287988	1.000990
483.657005	1.001136
484.025964	1.001680
484.394864	1.001475
484.763706	1.001487
485.132489	1.001831
485.501213	1.000894
485.869879	1.001261
486.238487	1.001101
486.607036	1.001950
486.975527	1.000702
487.343959	1.000829
487.712333	1.001114
488.080648	1.001137
488.448905	1.000717
488.817104	1.001636
489.185244	1.001530
489.553326	1.001657
489.921350	1.001066
490.289315	1.001033
490.657222	1.000901
491.025070	1.000660
491.392861	1.001809
491.760593	1.001526
492.128267	1.001144
492.495883	1.000550
492.863440	1.001397
493.230939	1.001582
493.598380	1.001370
493.965763	1.000972
494.333088	1.001464
494.700354	1.000862
495.067563	1.000827
495.434713	1.001322
495.801805	1.001539
496.168839	1.000781
496.535815	1.000846
496.902733	1.001104
497.269593	1.000847
497.636395	1.000910
498.003139	1.000765
498.369825	1.001776
498.736453	1.000614
499.103023	0.999931
499.469535	1.000630
499.835989	1.000347
500.202385	1.000856
500.568723	1.001721
500.935003	1.001790
501.301226	1.000706
501.667390	1.001349
502.033497	1.000969
502.399546	1.001754
502.765537	1.001087
503.131470	1.001360
503.497345	1.001399
503.863163	1.002032
504.228923	1.001380
504.594625	1.001315
504.960269	1.001326
505.325856	1.001069
505.691385	1.001276
506.056856	1.001361
506.422270	1.001213
506.787625	1.001122
507.152924	1.001036
507.518164	1.001264
507.883347	1.000890
508.248472	1.000946
508.613540	1.001260
508.978550	1.001355
509.343503	1.000337
509.708398	1.001102
510.073236	1.000961
510.438016	1.001415
510.802738	1.000656
511.167403	1.001690
511.532010	1.000675
511.896561	1.001589
512.261053	1.001967
512.625488	1.000813
512.989866	1.001321
513.354186	1.001539
513.718449	1.001068
514.082655	1.000816
514.446803	1.001451
514.810894	1.001219
515.174927	1.001037
515.538904	1.001040
515.902822	1.001276
516.266684	1.001432
516.630488	1.001910
516.994235	1.000599
517.357925	1.001225
517.721558	1.001449
518.085133	1.000410
518.448651	1.001443
518.812112	1.000873
519.175516	1.000723
519.538863	1.001476
519.902152	1.000747
520.265385	1.000377
520.628560	1.001133
520.991678	1.001037
521.354739	1.000905
521.717743	1.001237
522.080690	1.001447
522.443580	1.000867
522.806413	1.001303
523.169189	1.000566
523.531908	1.000662
523.894569	1.001301
524.257174	1.001155
524.619722	1.001305
524.982213	1.001257
525.344647	1.001348
525.707025	1.000756
526.069345	1.000524
526.431608	1.001120
526.793815	1.001212
527.155964	1.000770
527.518057	1.001710
527.880093	1.000817
528.242072	1.001329
528.603995	1.000458
528.965860	1.001725
529.327669	1.000921
529.689421	1.000521
530.051117	1.001743
530.412755	1.001026
530.774337	1.001669
531.135862	1.001019
531.497331	1.001049
531.858743	1.001427
532.220098	1.001454
532.581396	1.001286
532.942638	1.001718
533.303824	1.001664
533.664953	1.001383
534.026025	1.000227
534.387040	1.000997
534.747999	1.000855
535.108902	1.001748
535.469748	1.001287
535.830537	1.000881
536.191270	1.001240
536.551947	1.001072
536.912567	1.000831
537.273131	1.001471
537.633638	1.000405
537.994089	1.001013
538.354483	1.001418
538.714821	1.001670
539.075103	1.000967
539.435328	1.000943
539.795497	1.000953
540.155609	1.000808
540.515665	1.001000
540.875665	1.001023
541.235609	1.001450
541.595496	1.000686
541.955328	0.999889
542.315102	1.000818
542.674821	1.001521
543.034483	1.000421
543.394090	1.000349
543.753640	1.001541
544.113134	1.001100
544.472571	1.000988
544.831953	1.001272
545.191278	1.000682
545.550548	1.001612
545.909761	1.000512
546.268918	1.000745
546.628019	1.001216
546.987064	1.000527
547.346053	1.001319
547.704986	1.002027
548.063863	1.001183
548.422684	1.000886
548.781449	1.001385
549.140158	1.000913
549.498811	1.001215
549.857408	1.001106
550.215949	1.001344
550.574434	1.001221
550.932864	1.000386
551.291237	1.001357
551.649555	1.001226
552.007817	1.000889
552.366022	1.000312
552.724173	1.001528
553.082267	1.001510
553.440305	1.000693
553.798288	1.001148
554.156215	1.000931
554.514086	1.001028
554.871902	1.001052
555.229661	1.001165
555.587365	1.001071
555.945014	1.001615
556.302606	1.000654
556.660143	1.001010
557.017625	1.000584
557.375050	1.000729
557.732421	1.001339
558.089735	1.001245
558.446994	1.001346
558.804197	1.001304
559.161345	1.001848
559.518437	1.001829
559.875474	1.000798
560.232455	1.000896
560.589381	1.001534
560.946251	1.000582
561.303065	1.000582
561.659825	1.001104
562.016528	1.000935
562.373177	1.001444
562.729770	1.000897
563.086307	1.001358
563.442789	1.001181
563.799216	1.000700
564.155587	1.000824
564.511904	1.000368
564.868164	1.000641
565.224370	1.000729
565.580520	1.000991
565.936615	1.001198
566.292654	1.000624
566.648638	1.000653
567.004567	1.000888
567.360441	1.001174
567.716260	1.001068
568.072023	1.001058
568.427732	1.000533
568.783385	1.001065
569.138982	1.001511
569.494525	1.000653
569.850013	1.001353
570.205445	1.001084
570.560823	1.001774
570.916145	1.000417
571.271412	1.000977
571.626625	1.001136
571.981782	1.000747
572.336884	1.001324
572.691931	1.000719
573.046923	1.000484
573.401860	1.000884
573.756743	1.000738
574.111570	1.001465
574.466342	1.001526
574.821059	1.001258
575.175722	1.001442
575.530330	1.001011
575.884882	1.001086
576.239380	1.001401
576.593823	1.000960
576.948211	1.000931
577.302544	1.000845
577.656823	1.000630
578.011047	1.001065
578.365216	1.001000
578.719330	1.000216
579.073389	1.001715
579.427394	1.000599
579.781344	1.001561
580.135239	1.000997
580.489080	1.001175
580.842866	1.000948
581.196597	1.000828
581.550273	1.000483
581.903895	1.001097
582.257463	1.001768
582.610975	1.000480
582.964434	1.001097
583.317837	1.001176
583.671186	1.001007
584.024481	1.000877
584.377721	1.000879
584.730906	1.000748
585.084037	1.001118
585.437113	1.000759
585.790135	1.000259
586.143103	1.000456
586.496016	1.002134
586.848874	1.000760
587.201679	1.000306
587.554428	1.001487
587.907124	1.000631
588.259765	1.001324
588.612352	1.001575
588.964884	1.001198
589.317362	1.001511
589.669786	1.000890
590.022155	1.001941
590.374470	1.000850
590.726731	1.000963
591.078937	1.000921
591.431090	1.000469
591.783188	1.000988
592.135232	1.001198
592.487222	1.001612
592.839157	1.000775
593.191038	1.001260
593.542866	0.999848
593.894639	1.001540
594.246358	1.000501
594.598022	1.001142
594.949633	1.001580
595.301190	1.000521
595.652692	1.001006
596.004141	1.001228
596.355535	1.000945
596.706876	1.001398
597.058162	1.000682
597.409395	1.001486
597.760573	1.000920
598.111698	1.001044
598.462768	1.000671
598.813785	1.000318
599.164748	1.001122
599.515657	1.000206
599.866511	1.001154
600.217312	1.000519
600.568060	1.000500
600.918753	1.000715
601.269392	1.000538
601.619978	1.000914
601.970510	1.001072
602.320988	1.001655
602.671412	1.000718
603.021783	1.001066
603.372100	1.001761
603.722363	1.000778
604.072572	1.000744
604.422728	1.001124
604.772830	1.000488
605.122878	1.000924
605.472872	1.001210
605.822813	1.000448
606.172701	1.000958
606.522534	1.002319
606.872314	1.000415
607.222041	1.001016
607.571714	1.001463
607.921333	1.000014
608.270899	1.001763
608.620411	1.001151
608.969870	1.001413
609.319276	1.000667
609.668627	1.001097
610.017926	1.000018
610.367171	1.001237
610.716362	1.000179
611.065500	1.000474
611.414585	1.000940
611.763616	1.001685
612.112594	1.001002
612.461518	1.001189
612.810389	1.000911
613.159207	1.001000
613.507971	1.000589
613.856682	1.001171
614.205340	1.001313
614.553945	1.000581
614.902496	1.001051
615.250994	1.001036
615.599439	1.001628
615.947830	1.000780
616.296169	1.000819
616.644454	1.000741
616.992686	1.001102
617.340864	1.001562
617.688990	1.001056
618.037063	1.001272
618.385082	1.000974
618.733048	1.000803
619.080961	1.001384
619.428821	1.000452
619.776628	1.000827
620.124382	1.000861
620.472083	1.000301
620.819731	1.001073
621.167326	1.000901
621.514868	1.000829
621.862357	1.001231
622.209793	1.000384
622.557176	1.000095
622.904506	1.000461
623.251783	1.000638
623.599007	1.001207
623.946179	1.001618
624.293297	1.001146
624.640363	1.000855
624.987376	1.000345
625.334336	1.000807
625.681243	1.000883
626.028097	1.001265
626.374899	1.001017
626.721647	1.001093
627.068343	1.001125
627.414987	1.000090
627.761577	1.000420
628.108115	1.001145
628.454600	1.000630
628.801032	1.000702
629.147412	1.000591
629.493739	1.000564
629.840014	1.000469
630.186236	1.001153
630.532405	1.000301
630.878521	1.000926
631.224585	1.000817
631.570597	1.000975
631.916556	1.000485
632.262462	1.001700
632.608316	1.000905
632.954117	0.999825
633.299866	1.000940
633.645562	1.000922
633.991206	1.001429
634.336797	1.001925
634.682336	1.001072
635.027823	1.000280
635.373257	1.000922
635.718639	1.000700
636.063968	1.000278
636.409245	1.000743
636.754470	1.001733
637.099642	1.001317
637.444762	1.001306
637.789829	1.000543
638.134845	1.000326
638.479808	1.000765
638.824719	1.000703
639.169577	1.000703
639.514383	1.001428
639.859137	1.000492
640.203839	1.000911
640.548489	1.001070
640.893086	1.000764
641.237632	1.000414
641.582125	1.000218
641.926566	0.999419
642.270955	1.000521
642.615292	1.001080
642.959576	1.001313
643.303809	1.000635
643.647990	1.000224
643.992118	1.000673
644.336195	1.001315
644.680219	1.000244
645.024192	0.999820
645.368112	1.000013
645.711981	1.001417
646.055797	1.000435
646.399562	0.999903
646.743274	0.998984
647.086935	1.000383
647.430544	0.999839
647.774101	1.000519
648.117606	1.000648
648.461059	1.000320
648.804460	0.999857
649.147810	0.999445
649.491108	1.000640
649.834354	0.999807
650.177548	1.000746
650.520690	1.000499
650.863781	1.000954
651.206820	1.000989
651.549807	1.000849
651.892742	1.001120
652.235626	1.000794
652.578458	1.000416
652.921238	1.000555
653.263967	1.000624
653.606644	1.000709
653.949269	1.000061
654.291843	0.999399
654.634365	1.000580
654.976836	1.000197
655.319255	1.000632
655.661622	1.001503
656.003938	1.000886
656.346203	1.000806
656.688416	1.000364
657.030577	1.000626
657.372687	0.999776
657.714746	0.999816
658.056753	1.000559
658.398708	1.001081
658.740612	1.000446
659.082465	1.000667
659.424266	1.000661
659.766016	0.999721
660.107715	0.999312
660.449362	1.000269
660.790958	1.000302
661.132503	0.999449
661.473996	1.000827
661.815438	1.000075
662.156829	1.000046
662.498168	1.000690
662.839456	0.999212
663.180693	1.000459
663.521879	1.000105
663.863013	1.001007
664.204097	1.000875
664.545129	1.000516
664.886110	1.000297
665.227040	0.999972
665.567918	0.999422
665.908746	0.999991
666.249522	0.999595
666.590248	0.999388
666.930922	1.000388
667.271545	0.999845
667.612118	0.999900
667.952639	1.000415
668.293109	1.000045
668.633528	1.000309
668.973896	1.000322
669.314213	0.999743
669.654480	1.000155
669.994695	1.000811
670.334859	1.000313
670.674973	0.999553
671.015035	0.999710
671.355047	1.000057
671.695008	1.000032
672.034918	0.999292
672.374777	0.999874
672.714585	1.000691
673.054342	1.000316
673.394049	0.999356
673.733705	0.998892
674.073310	1.000288
674.412864	1.000392
674.752368	0.999682
675.091820	1.000881
675.431223	1.000638
675.770574	1.000000
676.109875	0.999393
676.449125	0.999770
676.788324	0.999404
677.127473	1.000260
677.466571	0.999217
677.805619	0.999554
678.144616	0.999812
678.483562	1.000228
678.822458	1.000065
679.161303	1.000502
679.500098	1.000423
679.838842	1.001181
680.177535	1.000369
680.516179	1.000570
680.854771	1.000114
681.193314	1.000360
681.531805	0.999803
681.870247	0.999425
682.208638	0.999820
682.546978	0.998735
682.885268	0.999083
683.223508	0.999694
683.561697	0.998292
683.899836	0.999019
684.237925	0.999150
684.575963	0.999297
684.913951	0.999578
685.251889	0.999420
685.589776	0.999374
685.927614	0.998960
686.265401	0.999207
686.603137	0.999365
686.940824	0.998231
687.278460	0.999214
687.616046	0.998807
687.953582	0.998191
688.291068	0.998942
688.628504	0.999621
