Dividing Wavelength (nm)	Counts (n)	Blue Motor Position (mm): 0.000000	Red Motor Position (mm): 49.500000	
326.493990	1.000688
326.888308	1.000688
327.282561	1.000688
327.676750	0.999604
328.070874	1.000000
328.464933	1.001175
328.858929	1.000050
329.252859	0.999336
329.646726	0.999151
330.040528	1.001570
330.434265	0.999931
330.827938	1.000889
331.221547	1.000423
331.615091	0.998643
332.008571	1.000713
332.401986	0.999897
332.795338	1.000569
333.188625	0.998930
333.581847	0.999536
333.975006	0.999967
334.368100	0.999856
334.761129	1.000332
335.154095	0.999675
335.546996	1.000405
335.939833	0.999981
336.332606	1.000266
336.725315	1.000526
337.117960	1.002003
337.510540	0.999838
337.903056	1.001282
338.295508	0.999717
338.687896	0.999653
339.080220	1.000232
339.472480	1.000776
339.864676	1.000000
340.256807	1.001269
340.648875	1.001103
341.040879	1.000363
341.432818	0.999949
341.824694	1.000656
342.216506	1.000814
342.608253	1.000040
342.999937	1.000259
343.391557	1.000735
343.783113	1.000233
344.174605	1.001177
344.566033	1.001789
344.957397	0.999480
345.348697	1.000444
345.739934	1.000578
346.131106	0.999342
346.522215	0.999285
346.913260	1.000456
347.304241	1.000467
347.695159	0.999814
348.086012	0.999510
348.476802	0.999967
348.867528	1.000354
349.258191	0.999439
349.648789	1.001366
350.039324	1.000442
350.429796	1.000455
350.820203	1.000836
351.210548	0.999356
351.600828	1.000280
351.991045	0.999478
352.381198	0.998828
352.771288	0.999720
353.161314	0.999619
353.551276	1.000908
353.941175	1.000736
354.331010	0.998982
354.720782	1.000787
355.110490	0.999851
355.500135	0.999607
355.889717	1.000141
356.279235	1.001153
356.668689	1.000304
357.058080	0.999533
357.447408	1.000923
357.836672	1.000657
358.225873	1.001757
358.615010	0.999597
359.004084	1.002653
359.393095	1.000807
359.782043	0.999839
360.170927	1.001980
360.559748	1.001883
360.948505	0.999285
361.337199	1.000617
361.725830	1.000694
362.114398	0.999894
362.502903	0.999295
362.891344	1.002095
363.279722	0.998914
363.668037	1.000932
364.056289	1.000090
364.444478	1.001803
364.832603	1.000365
365.220665	1.000865
365.608665	1.000059
365.996601	0.999707
366.384474	1.001175
366.772284	1.000276
367.160031	0.999904
367.547715	0.999457
367.935336	1.000192
368.322893	1.000073
368.710388	0.999926
369.097820	1.000782
369.485189	1.000168
369.872495	1.000111
370.259738	0.998883
370.646918	1.000910
371.034035	1.000680
371.421090	0.999424
371.808081	1.000196
372.195010	1.000729
372.581875	1.000456
372.968678	1.000711
373.355418	0.999868
373.742096	0.999448
374.128710	1.001160
374.515262	1.000477
374.901751	1.000293
375.288177	0.999789
375.674540	1.000294
376.060841	0.999389
376.447079	1.000667
376.833254	0.999997
377.219367	1.000976
377.605417	1.000146
377.991404	1.000124
378.377329	0.999624
378.763191	1.000176
379.148991	1.001145
379.534727	0.999893
379.920402	1.000448
380.306013	1.000914
380.691563	1.001211
381.077049	0.999843
381.462474	1.000048
381.847835	1.000624
382.233134	0.999810
382.618371	1.001319
383.003545	1.000484
383.388657	0.999940
383.773706	1.000505
384.158693	1.001049
384.543618	0.999729
384.928480	1.000751
385.313280	0.999743
385.698017	1.000163
386.082692	1.001112
386.467305	1.001293
386.851856	1.001127
387.236344	1.000387
387.620770	0.999218
388.005133	1.000688
388.389435	1.001240
388.773674	1.000937
389.157851	0.999916
389.541965	0.999914
389.926018	0.999469
390.310008	1.000650
390.693936	1.000521
391.077802	1.000732
391.461606	1.000630
391.845348	0.999933
392.229027	1.001742
392.612645	1.001261
392.996200	1.001332
393.379694	1.000709
393.763125	1.002197
394.146494	1.001210
394.529801	1.000141
394.913047	1.001349
395.296230	1.000502
395.679351	1.000914
396.062410	1.000007
396.445408	1.001888
396.828343	0.999909
397.211217	1.000517
397.594028	1.000786
397.976778	1.000637
398.359466	1.001132
398.742092	1.000062
399.124656	0.999422
399.507158	1.000323
399.889598	1.000158
400.271977	1.000620
400.654294	1.000694
401.036549	1.001234
401.418742	1.001556
401.800874	0.999937
402.182944	1.000194
402.564952	0.999573
402.946898	1.000909
403.328783	1.000846
403.710606	1.000331
404.092367	1.000683
404.474067	1.001467
404.855705	1.000324
405.237282	1.000232
405.618797	1.000355
406.000250	1.000077
406.381642	1.000781
406.762972	1.001506
407.144240	1.001336
407.525447	1.000861
407.906593	1.000850
408.287677	1.001214
408.668700	1.001000
409.049661	0.999887
409.430560	1.000043
409.811399	0.999482
410.192176	0.999800
410.572891	1.000285
410.953545	0.999963
411.334138	0.999740
411.714669	1.001204
412.095139	1.000149
412.475547	1.000771
412.855894	1.000616
413.236180	1.000412
413.616405	1.000698
413.996568	1.001502
414.376670	1.000507
414.756711	1.000439
415.136691	1.000809
415.516609	1.001243
415.896466	1.000539
416.276262	0.999706
416.655997	1.001306
417.035670	1.000382
417.415283	0.999933
417.794834	1.001237
418.174324	1.000346
418.553753	1.000765
418.933121	1.000341
419.312428	1.000493
419.691674	1.000102
420.070859	1.001339
420.449983	1.001470
420.829045	1.000152
421.208047	1.001379
421.586988	1.001641
421.965867	1.000214
422.344686	1.001829
422.723444	1.000289
423.102141	1.000401
423.480777	1.000896
423.859352	1.000698
424.237866	1.000719
424.616319	1.001584
424.994712	1.000415
425.373044	1.000866
425.751314	1.001030
426.129524	0.999876
426.507673	1.000851
426.885762	1.001415
427.263789	1.001777
427.641756	1.000837
428.019662	1.001312
428.397508	1.000806
428.775292	1.000396
429.153016	1.000677
429.530679	1.001677
429.908282	1.001568
430.285824	1.000530
430.663305	1.000623
431.040726	1.000047
431.418086	1.002004
431.795385	1.000750
432.172624	1.000227
432.549802	1.000481
432.926920	1.001084
433.303977	1.000384
433.680974	1.001643
434.057910	1.000864
434.434786	1.001029
434.811601	1.000540
435.188355	1.001001
435.565050	1.000700
435.941683	1.000270
436.318257	1.001551
436.694770	1.000524
437.071222	1.001041
437.447614	1.001437
437.823946	0.999929
438.200218	1.000569
438.576429	1.001389
438.952580	1.001200
439.328670	1.000847
439.704700	1.000921
440.080670	1.002122
440.456580	1.001197
440.832429	1.000684
441.208218	1.000548
441.583947	1.001179
441.959616	1.001247
442.335224	1.000842
442.710773	1.001528
443.086261	1.000939
443.461689	1.000776
443.837057	1.000445
444.212365	1.001409
444.587612	1.000429
444.962800	1.000984
445.337927	1.000817
445.712995	1.000637
446.088002	1.001961
446.462949	1.001533
446.837837	1.000443
447.212664	1.001133
447.587431	1.000931
447.962139	1.000469
448.336786	1.000827
448.711374	1.001268
449.085901	1.001027
449.460369	1.001439
449.834776	1.001253
450.209124	1.000980
450.583412	1.000658
450.957640	1.001452
451.331808	1.001049
451.705917	1.000375
452.079965	1.000264
452.453954	1.000638
452.827883	1.000638
453.201752	1.001143
453.575562	1.001936
453.949311	1.001836
454.323001	1.000759
454.696632	1.000765
455.070202	1.000519
455.443713	1.000199
455.817164	1.001081
456.190556	1.001144
456.563888	1.000473
456.937160	1.001003
457.310373	1.000001
457.683526	1.000647
458.056619	1.000525
458.429653	1.000682
458.802628	1.000676
459.175542	1.000553
459.548398	1.001113
459.921194	1.001136
460.293930	1.001073
460.666607	1.000714
461.039224	0.999664
461.411782	1.000684
461.784280	1.000752
462.156719	1.001962
462.529099	1.001382
462.901419	1.001046
463.273680	1.001564
463.645882	1.001230
464.018024	1.001258
464.390106	1.000782
464.762130	1.001329
465.134094	1.001229
465.505999	1.001176
465.877845	1.000555
466.249631	1.001010
466.621358	1.001039
466.993026	1.001743
467.364634	1.000615
467.736184	1.001066
468.107674	1.000686
468.479105	1.000722
468.850477	1.001175
469.221790	1.000897
469.593043	1.000800
469.964238	1.001817
470.335373	1.000764
470.706449	1.000202
471.077467	1.000890
471.448425	1.001523
471.819324	1.002052
472.190164	1.000738
472.560945	1.001182
472.931667	1.001189
473.302330	1.000779
473.672934	1.001638
474.043479	1.001042
474.413965	1.000961
474.784393	1.001171
475.154761	1.000808
475.525070	1.000239
475.895321	1.001665
476.265513	1.001512
476.635645	1.000745
477.005719	1.001095
477.375734	1.000778
477.745691	1.001003
478.115588	1.001725
478.485427	1.001291
478.855207	1.000944
479.224928	1.000869
479.594591	1.000922
479.964194	1.001045
480.333739	1.001680
480.703226	1.001020
481.072653	1.001819
481.442022	1.001275
481.811333	1.000365
482.180584	1.001616
482.549777	1.000647
482.918912	1.001329
483.287988	1.001301
483.657005	1.000667
484.025964	1.001587
484.394864	1.001235
484.763706	1.001377
485.132489	1.001682
485.501213	1.001037
485.869879	1.001232
486.238487	1.001303
486.607036	1.001423
486.975527	1.000885
487.343959	1.001069
487.712333	1.000885
488.080648	1.001107
488.448905	1.001224
488.817104	1.000970
489.185244	1.001418
489.553326	1.001432
489.921350	1.000549
490.289315	1.000974
490.657222	1.001626
491.025070	1.001144
491.392861	1.001756
491.760593	1.001597
492.128267	1.001688
492.495883	1.000766
492.863440	1.000867
493.230939	1.001493
493.598380	1.000715
493.965763	1.000819
494.333088	1.000603
494.700354	1.001042
495.067563	1.001084
495.434713	1.001141
495.801805	1.002140
496.168839	1.001367
496.535815	1.000841
496.902733	1.001220
497.269593	1.001030
497.636395	1.001577
498.003139	1.001311
498.369825	1.001689
498.736453	1.001401
499.103023	1.001037
499.469535	1.000614
499.835989	1.001275
500.202385	1.001390
500.568723	1.001222
500.935003	1.001739
501.301226	1.001499
501.667390	1.001569
502.033497	1.001038
502.399546	1.001887
502.765537	1.000752
503.131470	1.000716
503.497345	1.000505
503.863163	1.001723
504.228923	1.001406
504.594625	1.001209
504.960269	1.001118
505.325856	1.001836
505.691385	1.000912
506.056856	1.001249
506.422270	1.000708
506.787625	1.001686
507.152924	1.001578
507.518164	1.000875
507.883347	1.001479
508.248472	1.000692
508.613540	1.001386
508.978550	1.001585
509.343503	1.001153
509.708398	1.001329
510.073236	1.001431
510.438016	1.001004
510.802738	1.001207
511.167403	1.001351
511.532010	1.001053
511.896561	1.000808
512.261053	1.002081
512.625488	1.000920
512.989866	1.001386
513.354186	1.001314
513.718449	1.001111
514.082655	1.001224
514.446803	1.001548
514.810894	1.001543
515.174927	1.001456
515.538904	1.000748
515.902822	1.001309
516.266684	1.001384
516.630488	1.001326
516.994235	1.000037
517.357925	1.001406
517.721558	1.002015
518.085133	1.001005
518.448651	1.002051
518.812112	1.001407
519.175516	1.001102
519.538863	1.001494
519.902152	1.001004
520.265385	1.000664
520.628560	1.000176
520.991678	1.000771
521.354739	1.001463
521.717743	1.001512
522.080690	1.001791
522.443580	1.000960
522.806413	1.001264
523.169189	1.000921
523.531908	1.000735
523.894569	1.001148
524.257174	1.001318
524.619722	1.001261
524.982213	1.000985
525.344647	1.001918
525.707025	1.001137
526.069345	1.000151
526.431608	1.001722
526.793815	1.001131
527.155964	1.001041
527.518057	1.000601
527.880093	1.001334
528.242072	1.001124
528.603995	1.000667
528.965860	1.001455
529.327669	1.000898
529.689421	1.000996
530.051117	1.001695
530.412755	1.000775
530.774337	1.001333
531.135862	1.001128
531.497331	1.001519
531.858743	1.001320
532.220098	1.001354
532.581396	1.001517
532.942638	1.001246
533.303824	1.001485
533.664953	1.001309
534.026025	1.000743
534.387040	1.000872
534.747999	1.001703
535.108902	1.001602
535.469748	1.001562
535.830537	1.001262
536.191270	1.001169
536.551947	1.000417
536.912567	1.001223
537.273131	1.002324
537.633638	1.001026
537.994089	1.001425
538.354483	1.001150
538.714821	1.001594
539.075103	1.000972
539.435328	1.001052
539.795497	1.000962
540.155609	1.000561
540.515665	1.000997
540.875665	1.001238
541.235609	1.001644
541.595496	1.000770
541.955328	1.000701
542.315102	1.001748
542.674821	1.000831
543.034483	1.000659
543.394090	1.000671
543.753640	1.001360
544.113134	1.001646
544.472571	1.002024
544.831953	1.001955
545.191278	1.001611
545.550548	1.001602
545.909761	1.000798
546.268918	1.001682
546.628019	1.001787
546.987064	1.000957
547.346053	1.001237
547.704986	1.000666
548.063863	1.001485
548.422684	1.000516
548.781449	1.001823
549.140158	1.000878
549.498811	1.001345
549.857408	1.001237
550.215949	1.001705
550.574434	1.001503
550.932864	1.001097
551.291237	1.001566
551.649555	1.000522
552.007817	1.000681
552.366022	1.001025
552.724173	1.001278
553.082267	1.001561
553.440305	1.001083
553.798288	1.001380
554.156215	1.001260
554.514086	1.001370
554.871902	1.001578
555.229661	1.001409
555.587365	1.001195
555.945014	1.002134
556.302606	1.000733
556.660143	1.000810
557.017625	1.000527
557.375050	1.000885
557.732421	1.001364
558.089735	1.001588
558.446994	1.001530
558.804197	1.001455
559.161345	1.001983
559.518437	1.002052
559.875474	1.000449
560.232455	1.000860
560.589381	1.001541
560.946251	1.000515
561.303065	1.001475
561.659825	1.001226
562.016528	1.001131
562.373177	1.001366
562.729770	1.001097
563.086307	1.001161
563.442789	1.000620
563.799216	1.000758
564.155587	1.000525
564.511904	1.000571
564.868164	1.000785
565.224370	1.001046
565.580520	1.001696
565.936615	1.001081
566.292654	1.000714
566.648638	1.001138
567.004567	1.000665
567.360441	1.001681
567.716260	1.001202
568.072023	1.001274
568.427732	1.001296
568.783385	1.002113
569.138982	1.001617
569.494525	1.000993
569.850013	1.001415
570.205445	1.001640
570.560823	1.001576
570.916145	1.000544
571.271412	1.000824
571.626625	1.001058
571.981782	1.000340
572.336884	1.001671
572.691931	1.000946
573.046923	1.000244
573.401860	1.000753
573.756743	1.000911
574.111570	1.000820
574.466342	1.001441
574.821059	1.001329
575.175722	1.001120
575.530330	1.001073
575.884882	1.000333
576.239380	1.001731
576.593823	1.001092
576.948211	1.000708
577.302544	1.001167
577.656823	1.001328
578.011047	1.001422
578.365216	1.000835
578.719330	1.000594
579.073389	1.001862
579.427394	1.000739
579.781344	1.000690
580.135239	1.000603
580.489080	1.000840
580.842866	1.000653
581.196597	1.000972
581.550273	1.000175
581.903895	1.001239
582.257463	1.001065
582.610975	1.000929
582.964434	1.000876
583.317837	1.001923
583.671186	1.001376
584.024481	1.000227
584.377721	1.001023
584.730906	1.001091
585.084037	1.000448
585.437113	1.000841
585.790135	1.000531
586.143103	0.999940
586.496016	1.000720
586.848874	1.000968
587.201679	1.000957
587.554428	1.001280
587.907124	1.000577
588.259765	1.000853
588.612352	1.000849
588.964884	1.000471
589.317362	1.001575
589.669786	1.000405
590.022155	1.001315
590.374470	1.000804
590.726731	1.000244
591.078937	1.000161
591.431090	1.000599
591.783188	1.000848
592.135232	1.000725
592.487222	1.000460
592.839157	1.000619
593.191038	1.000806
593.542866	1.000681
593.894639	1.000979
594.246358	1.000002
594.598022	1.000188
594.949633	1.001161
595.301190	1.000783
595.652692	1.000490
596.004141	1.000531
596.355535	1.000631
596.706876	1.000191
597.058162	1.001077
597.409395	1.001240
597.760573	1.001139
598.111698	1.000025
598.462768	0.999535
598.813785	1.000187
599.164748	1.001135
599.515657	0.999936
599.866511	1.001095
600.217312	0.999432
600.568060	1.001180
600.918753	1.000975
601.269392	1.000155
601.619978	1.000442
601.970510	1.000701
602.320988	1.001283
602.671412	1.000074
603.021783	1.000589
603.372100	1.000554
603.722363	1.001528
604.072572	1.000066
604.422728	1.001119
604.772830	1.000328
605.122878	1.001201
605.472872	1.000627
605.822813	1.000182
606.172701	0.999946
606.522534	1.001058
606.872314	1.000728
607.222041	0.999748
607.571714	1.001074
607.921333	1.000616
608.270899	1.000160
608.620411	1.000945
608.969870	1.001179
609.319276	1.000332
609.668627	1.001197
610.017926	0.999899
610.367171	1.000012
610.716362	0.999969
611.065500	1.000591
611.414585	1.000031
611.763616	1.000992
612.112594	1.000547
612.461518	0.999735
612.810389	1.000224
613.159207	1.000342
613.507971	1.000527
613.856682	1.000981
614.205340	1.001222
614.553945	1.000212
614.902496	1.000854
615.250994	1.000193
615.599439	1.000749
615.947830	0.999603
616.296169	1.000432
616.644454	1.000123
616.992686	1.000694
617.340864	0.999950
617.688990	1.001227
618.037063	1.000584
618.385082	1.000502
618.733048	1.000881
619.080961	1.000726
619.428821	1.001032
619.776628	1.000643
620.124382	1.000449
620.472083	0.999643
620.819731	1.000429
621.167326	1.000458
621.514868	1.000356
621.862357	1.000319
622.209793	1.000544
622.557176	0.999275
622.904506	1.000498
623.251783	0.999631
623.599007	1.000538
623.946179	1.000381
624.293297	1.000027
624.640363	1.000501
624.987376	0.999392
625.334336	1.000805
625.681243	0.999498
626.028097	1.000983
626.374899	1.000087
626.721647	1.000177
627.068343	1.000728
627.414987	1.000991
627.761577	1.000096
628.108115	1.000470
628.454600	1.000823
628.801032	1.000409
629.147412	1.000808
629.493739	0.999550
629.840014	0.999265
630.186236	1.000705
630.532405	1.000091
630.878521	0.999452
631.224585	1.000078
631.570597	1.000043
631.916556	1.000274
632.262462	1.000612
632.608316	1.000779
632.954117	0.999972
633.299866	0.999665
633.645562	0.999386
633.991206	1.001196
634.336797	1.000913
634.682336	1.000579
635.027823	1.001045
635.373257	1.000892
635.718639	1.000508
636.063968	1.000235
636.409245	0.999773
636.754470	1.000041
637.099642	1.001277
637.444762	1.001133
637.789829	0.999902
638.134845	1.000399
638.479808	1.000008
638.824719	1.001091
639.169577	0.999834
639.514383	0.999948
639.859137	0.999804
640.203839	1.000247
640.548489	0.999893
640.893086	1.000389
641.237632	1.000317
641.582125	0.999377
641.926566	0.999171
642.270955	0.999981
642.615292	0.999916
642.959576	0.999840
643.303809	1.000141
643.647990	1.000097
643.992118	1.000096
644.336195	1.000760
644.680219	1.000971
645.024192	1.000326
645.368112	0.999820
645.711981	1.000403
646.055797	0.999917
646.399562	0.999845
646.743274	0.999380
647.086935	0.999892
647.430544	1.000134
647.774101	0.999389
648.117606	1.000210
648.461059	0.999278
648.804460	1.000024
649.147810	0.999922
649.491108	1.000417
649.834354	0.999620
650.177548	1.000400
650.520690	1.000619
650.863781	0.999755
651.206820	1.000475
651.549807	1.000529
651.892742	1.000201
652.235626	1.000615
652.578458	0.999978
652.921238	0.999195
653.263967	1.000756
653.606644	1.000842
653.949269	1.000277
654.291843	0.999795
654.634365	0.999483
654.976836	0.999829
655.319255	1.000089
655.661622	1.000461
656.003938	1.000531
656.346203	0.999927
656.688416	1.000082
657.030577	1.000842
657.372687	0.998732
657.714746	1.000145
658.056753	1.000592
658.398708	1.000169
658.740612	1.000151
659.082465	1.000018
659.424266	0.999943
659.766016	0.999860
660.107715	0.999377
660.449362	0.999432
660.790958	0.999804
661.132503	0.999150
661.473996	0.999913
661.815438	1.000340
662.156829	0.999978
662.498168	1.000087
662.839456	0.998895
663.180693	1.000706
663.521879	1.000597
663.863013	1.000085
664.204097	1.000609
664.545129	1.000905
664.886110	1.000226
665.227040	1.000172
665.567918	0.999317
665.908746	1.000302
666.249522	0.999683
666.590248	1.000404
666.930922	0.999774
667.271545	0.999820
667.612118	1.000347
667.952639	0.999966
668.293109	1.000078
668.633528	0.999455
668.973896	1.000302
669.314213	1.000405
669.654480	1.000665
669.994695	0.999823
670.334859	1.000322
670.674973	0.999020
671.015035	1.000396
671.355047	0.999462
671.695008	1.000469
672.034918	0.998847
672.374777	1.000004
672.714585	0.999693
673.054342	1.000490
673.394049	0.999581
673.733705	0.999705
674.073310	0.999630
674.412864	0.999967
674.752368	0.999520
675.091820	1.001082
675.431223	1.000022
675.770574	1.000080
676.109875	0.999801
676.449125	0.999888
676.788324	0.999229
677.127473	1.000554
677.466571	0.999723
677.805619	0.999884
678.144616	0.999723
678.483562	0.999773
678.822458	1.000274
679.161303	1.000750
679.500098	0.999892
679.838842	1.001110
680.177535	1.000729
680.516179	1.000768
680.854771	1.000324
681.193314	1.000852
681.531805	1.000767
681.870247	1.000220
682.208638	0.998977
682.546978	0.999878
682.885268	0.999274
683.223508	1.000408
683.561697	0.999168
683.899836	1.000211
684.237925	1.001047
684.575963	0.999441
684.913951	0.999997
685.251889	1.000783
685.589776	0.999340
685.927614	0.999647
686.265401	1.000169
686.603137	0.999614
686.940824	0.999881
687.278460	0.999236
687.616046	0.999137
687.953582	0.999065
688.291068	0.999874
688.628504	1.000377
