Dividing Wavelength (nm)	Counts (n)	Blue Motor Position (mm): 0.000000	Red Motor Position (mm): 46.700000	
326.493990	1.001583
326.888308	1.001583
327.282561	1.001583
327.676750	0.999296
328.070874	1.001753
328.464933	1.000174
328.858929	1.000238
329.252859	1.000741
329.646726	0.999851
330.040528	1.001267
330.434265	1.000424
330.827938	1.001637
331.221547	1.001463
331.615091	1.000686
332.008571	1.001125
332.401986	1.000595
332.795338	1.001393
333.188625	1.000293
333.581847	1.002013
333.975006	0.999221
334.368100	1.001071
334.761129	1.001795
335.154095	1.001019
335.546996	1.000379
335.939833	0.999484
336.332606	1.000589
336.725315	1.001957
337.117960	1.002531
337.510540	0.999720
337.903056	1.001975
338.295508	0.999098
338.687896	1.000943
339.080220	1.000922
339.472480	1.000182
339.864676	1.000483
340.256807	1.000492
340.648875	1.000509
341.040879	1.000325
341.432818	0.999684
341.824694	1.000439
342.216506	1.000741
342.608253	1.000136
342.999937	0.999982
343.391557	1.001035
343.783113	0.998821
344.174605	0.999965
344.566033	1.000504
344.957397	0.999429
345.348697	1.000665
345.739934	1.000253
346.131106	0.999934
346.522215	1.000444
346.913260	0.999872
347.304241	0.999702
347.695159	0.999404
348.086012	0.999380
348.476802	0.999947
348.867528	1.000358
349.258191	0.999391
349.648789	1.000748
350.039324	1.001055
350.429796	1.000969
350.820203	1.000629
351.210548	0.999967
351.600828	1.000954
351.991045	1.000399
352.381198	0.998273
352.771288	1.000425
353.161314	1.000507
353.551276	1.002190
353.941175	1.000523
354.331010	1.000120
354.720782	1.000560
355.110490	1.000560
355.500135	1.001260
355.889717	1.001602
356.279235	1.000153
356.668689	1.000518
357.058080	1.000287
357.447408	1.000976
357.836672	1.001235
358.225873	1.001975
358.615010	1.001181
359.004084	1.001624
359.393095	1.000425
359.782043	1.000927
360.170927	1.001092
360.559748	1.000924
360.948505	0.999244
361.337199	0.999389
361.725830	1.000822
362.114398	0.999551
362.502903	1.001104
362.891344	1.001956
363.279722	1.001045
363.668037	1.000701
364.056289	1.000322
364.444478	1.001041
364.832603	1.001416
365.220665	1.001718
365.608665	1.000274
365.996601	1.000421
366.384474	1.000650
366.772284	1.000543
367.160031	0.999498
367.547715	0.998719
367.935336	0.999775
368.322893	0.999470
368.710388	0.999284
369.097820	0.999982
369.485189	0.999876
369.872495	1.000616
370.259738	0.999384
370.646918	1.001023
371.034035	1.000093
371.421090	1.000601
371.808081	0.999581
372.195010	1.000728
372.581875	1.000907
372.968678	1.000484
373.355418	1.000196
373.742096	1.000121
374.128710	1.001344
374.515262	0.999926
374.901751	1.001563
375.288177	1.001075
375.674540	1.001201
376.060841	1.000627
376.447079	1.000971
376.833254	1.000619
377.219367	1.001598
377.605417	1.001879
377.991404	1.001627
378.377329	1.000246
378.763191	1.000682
379.148991	1.001894
379.534727	1.000729
379.920402	1.001351
380.306013	1.000887
380.691563	1.001701
381.077049	1.000751
381.462474	1.000597
381.847835	1.000657
382.233134	1.000578
382.618371	1.001192
383.003545	1.000776
383.388657	1.000772
383.773706	1.001157
384.158693	1.000694
384.543618	1.000902
384.928480	1.002077
385.313280	1.001119
385.698017	1.001258
386.082692	1.001241
386.467305	1.000820
386.851856	1.000623
387.236344	1.000783
387.620770	1.000163
388.005133	1.001223
388.389435	1.002621
388.773674	1.000619
389.157851	1.001583
389.541965	1.000293
389.926018	1.000534
390.310008	1.001460
390.693936	1.001098
391.077802	1.001171
391.461606	1.001043
391.845348	1.000785
392.229027	1.001644
392.612645	1.001441
392.996200	1.001392
393.379694	1.000172
393.763125	1.000944
394.146494	1.001801
394.529801	1.000795
394.913047	1.001464
395.296230	1.001513
395.679351	1.001530
396.062410	1.001266
396.445408	1.002061
396.828343	1.001442
397.211217	1.000954
397.594028	1.001735
397.976778	1.001489
398.359466	1.000489
398.742092	1.001008
399.124656	1.000835
399.507158	1.000804
399.889598	1.001004
400.271977	1.001389
400.654294	1.001035
401.036549	1.001948
401.418742	1.002584
401.800874	1.000419
402.182944	1.001458
402.564952	1.000519
402.946898	1.001152
403.328783	1.000794
403.710606	1.000697
404.092367	1.000924
404.474067	1.001296
404.855705	1.000651
405.237282	1.001416
405.618797	1.001344
406.000250	1.000924
406.381642	1.000720
406.762972	1.001030
407.144240	1.001880
407.525447	1.001341
407.906593	1.001126
408.287677	1.001235
408.668700	1.001047
409.049661	0.999239
409.430560	1.001798
409.811399	1.000873
410.192176	1.000626
410.572891	1.001062
410.953545	1.001090
411.334138	0.999888
411.714669	1.000537
412.095139	1.001467
412.475547	1.001368
412.855894	1.000410
413.236180	1.002138
413.616405	1.001124
413.996568	1.002335
414.376670	1.001330
414.756711	1.000520
415.136691	1.001156
415.516609	1.000718
415.896466	1.000742
416.276262	1.000487
416.655997	1.000902
417.035670	1.000343
417.415283	1.000420
417.794834	1.000728
418.174324	1.000389
418.553753	1.000977
418.933121	1.000515
419.312428	0.999555
419.691674	1.000241
420.070859	1.001036
420.449983	1.001020
420.829045	1.001390
421.208047	1.000754
421.586988	1.001721
421.965867	1.000497
422.344686	1.001041
422.723444	1.001413
423.102141	1.000567
423.480777	1.001493
423.859352	1.000678
424.237866	0.999547
424.616319	1.000780
424.994712	1.000537
425.373044	1.000968
425.751314	1.001167
426.129524	1.000382
426.507673	1.000782
426.885762	1.001068
427.263789	1.001103
427.641756	1.001108
428.019662	1.001399
428.397508	1.000321
428.775292	1.000114
429.153016	1.000581
429.530679	1.001011
429.908282	1.000777
430.285824	1.000881
430.663305	1.000891
431.040726	1.000890
431.418086	1.002516
431.795385	1.001446
432.172624	1.001120
432.549802	1.001491
432.926920	1.001484
433.303977	1.000016
433.680974	1.001706
434.057910	1.001024
434.434786	1.001396
434.811601	1.000182
435.188355	1.000435
435.565050	1.000146
435.941683	1.000888
436.318257	1.001030
436.694770	1.000595
437.071222	1.001408
437.447614	1.001412
437.823946	1.000984
438.200218	1.001145
438.576429	1.001131
438.952580	1.001930
439.328670	1.000770
439.704700	1.001206
440.080670	1.000860
440.456580	1.000433
440.832429	0.999622
441.208218	1.000832
441.583947	1.000492
441.959616	1.001141
442.335224	0.999884
442.710773	1.001055
443.086261	1.000979
443.461689	1.000354
443.837057	1.000904
444.212365	1.000968
444.587612	1.000204
444.962800	1.001078
445.337927	1.001144
445.712995	1.001549
446.088002	1.001783
446.462949	1.002344
446.837837	1.001299
447.212664	1.001494
447.587431	1.001163
447.962139	1.000685
448.336786	1.000637
448.711374	1.000912
449.085901	1.000450
449.460369	1.001407
449.834776	1.000086
450.209124	1.001580
450.583412	1.000898
450.957640	1.000165
451.331808	1.000206
451.705917	1.001161
452.079965	0.999916
452.453954	1.000869
452.827883	1.000614
453.201752	1.001231
453.575562	1.001055
453.949311	1.001768
454.323001	1.001229
454.696632	1.000711
455.070202	1.001017
455.443713	1.000559
455.817164	1.000994
456.190556	1.000188
456.563888	1.000518
456.937160	1.000554
457.310373	1.000484
457.683526	1.000297
458.056619	1.001172
458.429653	1.000554
458.802628	1.000520
459.175542	1.000158
459.548398	1.001533
459.921194	0.999727
460.293930	1.000294
460.666607	0.999538
461.039224	0.999465
461.411782	1.000517
461.784280	1.000083
462.156719	1.001089
462.529099	1.001036
462.901419	1.000828
463.273680	1.000284
463.645882	1.000951
464.018024	1.000407
464.390106	1.000527
464.762130	1.001164
465.134094	1.000413
465.505999	1.000693
465.877845	0.999962
466.249631	1.000613
466.621358	1.000170
466.993026	1.001030
467.364634	1.000854
467.736184	1.000865
468.107674	1.000399
468.479105	1.000270
468.850477	1.001354
469.221790	1.001347
469.593043	1.000918
469.964238	1.001179
470.335373	1.000774
470.706449	1.000571
471.077467	1.000606
471.448425	1.000346
471.819324	1.000999
472.190164	0.999652
472.560945	1.000769
472.931667	1.000596
473.302330	0.999724
473.672934	1.000669
474.043479	1.000631
474.413965	1.000490
474.784393	1.001317
475.154761	1.000438
475.525070	1.000164
475.895321	1.000400
476.265513	1.000546
476.635645	1.000361
477.005719	1.001110
477.375734	0.999696
477.745691	1.000546
478.115588	1.000449
478.485427	1.000908
478.855207	1.000502
479.224928	1.000655
479.594591	1.000148
479.964194	1.000657
480.333739	1.000379
480.703226	1.000958
481.072653	1.001723
481.442022	1.001059
481.811333	0.999828
482.180584	1.001041
482.549777	1.000580
482.918912	1.000040
483.287988	1.001230
483.657005	1.000386
484.025964	1.001689
484.394864	1.000985
484.763706	1.000968
485.132489	1.001296
485.501213	1.000822
485.869879	1.001087
486.238487	1.001586
486.607036	1.001513
486.975527	1.000431
487.343959	1.000692
487.712333	1.000239
488.080648	1.000709
488.448905	1.000684
488.817104	1.000609
489.185244	1.000961
489.553326	1.000603
489.921350	1.001240
490.289315	1.000983
490.657222	1.001106
491.025070	1.000602
491.392861	1.000765
491.760593	1.001293
492.128267	1.000528
492.495883	1.000349
492.863440	1.001454
493.230939	1.000738
493.598380	1.000244
493.965763	1.000508
494.333088	1.001515
494.700354	1.000396
495.067563	1.000708
495.434713	1.000967
495.801805	1.001935
496.168839	1.001118
496.535815	1.000403
496.902733	1.000362
497.269593	1.000980
497.636395	1.001125
498.003139	1.000226
498.369825	1.000993
498.736453	1.000735
499.103023	0.999908
499.469535	1.000337
499.835989	1.001350
500.202385	1.001157
500.568723	1.000904
500.935003	1.000994
501.301226	1.001096
501.667390	1.000517
502.033497	1.001126
502.399546	1.001331
502.765537	1.000491
503.131470	1.000695
503.497345	1.000643
503.863163	1.001683
504.228923	1.000751
504.594625	1.000502
504.960269	1.000966
505.325856	1.000971
505.691385	1.000618
506.056856	1.001016
506.422270	1.001073
506.787625	1.001444
507.152924	1.001183
507.518164	1.000773
507.883347	1.000776
508.248472	1.000662
508.613540	1.001328
508.978550	1.001475
509.343503	1.000888
509.708398	1.001143
510.073236	1.000941
510.438016	1.001364
510.802738	1.001313
511.167403	1.001065
511.532010	1.001439
511.896561	1.000121
512.261053	1.001750
512.625488	1.000318
512.989866	1.001242
513.354186	1.000733
513.718449	1.000902
514.082655	1.000432
514.446803	1.001193
514.810894	1.001142
515.174927	1.000772
515.538904	1.000656
515.902822	1.000989
516.266684	1.001644
516.630488	1.001969
516.994235	1.000723
517.357925	1.000539
517.721558	1.001148
518.085133	1.000037
518.448651	1.001826
518.812112	1.001040
519.175516	1.000979
519.538863	1.001270
519.902152	1.000748
520.265385	1.000837
520.628560	1.000888
520.991678	1.001008
521.354739	1.000914
521.717743	1.001137
522.080690	1.000972
522.443580	1.000524
522.806413	1.001452
523.169189	0.999972
523.531908	1.000807
523.894569	1.000553
524.257174	1.001473
524.619722	1.001688
524.982213	1.001335
525.344647	1.001149
525.707025	1.000718
526.069345	1.000754
526.431608	1.000547
526.793815	1.001045
527.155964	1.001149
527.518057	1.001178
527.880093	1.000780
528.242072	1.000916
528.603995	1.000980
528.965860	1.001576
529.327669	1.001201
529.689421	1.000676
530.051117	1.001737
530.412755	1.000841
530.774337	1.001421
531.135862	1.001082
531.497331	1.000857
531.858743	1.001192
532.220098	1.001390
532.581396	1.001586
532.942638	1.000847
533.303824	1.000774
533.664953	1.001596
534.026025	1.000587
534.387040	1.000182
534.747999	1.000871
535.108902	1.001114
535.469748	1.000374
535.830537	1.000371
536.191270	1.000647
536.551947	1.000975
536.912567	1.000727
537.273131	1.001539
537.633638	1.000263
537.994089	1.000611
538.354483	1.000803
538.714821	1.000890
539.075103	1.001166
539.435328	1.000368
539.795497	1.000891
540.155609	1.000481
540.515665	1.000999
540.875665	1.000557
541.235609	1.000706
541.595496	1.000349
541.955328	0.999900
542.315102	1.000876
542.674821	1.000542
543.034483	1.000450
543.394090	1.000154
543.753640	1.000748
544.113134	1.000517
544.472571	1.000637
544.831953	1.001264
545.191278	1.000073
545.550548	1.001175
545.909761	1.000212
546.268918	1.001053
546.628019	1.000916
546.987064	1.000549
547.346053	1.000289
547.704986	1.001328
548.063863	1.000855
548.422684	1.000953
548.781449	1.001132
549.140158	0.999964
549.498811	1.000702
549.857408	1.000454
550.215949	1.000445
550.574434	1.001172
550.932864	1.000751
551.291237	1.001132
551.649555	1.000661
552.007817	0.999976
552.366022	0.999813
552.724173	1.001130
553.082267	1.000474
553.440305	0.999989
553.798288	1.000766
554.156215	1.000840
554.514086	1.000568
554.871902	1.000107
555.229661	1.000127
555.587365	1.000544
555.945014	1.000872
556.302606	1.000418
556.660143	1.000950
557.017625	1.000266
557.375050	1.000600
557.732421	1.000570
558.089735	1.001029
558.446994	1.000806
558.804197	1.000642
559.161345	1.001078
559.518437	1.001412
559.875474	1.000345
560.232455	1.000532
560.589381	1.000828
560.946251	0.999988
561.303065	1.000095
561.659825	1.000829
562.016528	1.000161
562.373177	1.000731
562.729770	1.000663
563.086307	0.999960
563.442789	1.000339
563.799216	1.000409
564.155587	0.999986
564.511904	0.999754
564.868164	0.999908
565.224370	1.000585
565.580520	1.000733
565.936615	0.999862
566.292654	1.000329
566.648638	1.000565
567.004567	0.999704
567.360441	1.000761
567.716260	1.000589
568.072023	1.000293
568.427732	1.000260
568.783385	1.000440
569.138982	1.000848
569.494525	1.000038
569.850013	0.999909
570.205445	0.999775
570.560823	1.000148
570.916145	0.999982
571.271412	1.000528
571.626625	1.000483
571.981782	0.999999
572.336884	1.000796
572.691931	1.000358
573.046923	1.000092
573.401860	1.000643
573.756743	1.000385
574.111570	1.000172
574.466342	1.000152
574.821059	1.000722
575.175722	0.999450
575.530330	1.000194
575.884882	0.999744
576.239380	1.000998
576.593823	1.000743
576.948211	0.999825
577.302544	0.998994
577.656823	1.000737
578.011047	1.000177
578.365216	0.999898
578.719330	1.000127
579.073389	1.000316
579.427394	1.000526
579.781344	1.000232
580.135239	1.000855
580.489080	1.000035
580.842866	1.000248
581.196597	0.999719
581.550273	0.999520
581.903895	1.000162
582.257463	0.999929
582.610975	1.000080
582.964434	1.000220
583.317837	1.001271
583.671186	1.000464
584.024481	1.000132
584.377721	1.000284
584.730906	0.999915
585.084037	1.000433
585.437113	1.000301
585.790135	1.000512
586.143103	0.999790
586.496016	1.000421
586.848874	0.999696
587.201679	1.000640
587.554428	1.000185
587.907124	0.999933
588.259765	1.000146
588.612352	1.000657
588.964884	1.000107
589.317362	1.000239
589.669786	1.000681
590.022155	1.000541
590.374470	1.000103
590.726731	0.999540
591.078937	0.999930
591.431090	0.999833
591.783188	0.999511
592.135232	1.000651
592.487222	0.999456
592.839157	0.999872
593.191038	1.000563
593.542866	1.000135
593.894639	1.000632
594.246358	0.999600
594.598022	0.999786
594.949633	1.000053
595.301190	0.999867
595.652692	1.000335
596.004141	1.001102
596.355535	0.999935
596.706876	1.000239
597.058162	1.000174
597.409395	1.000207
597.760573	1.000326
598.111698	0.999937
598.462768	0.999747
598.813785	1.000439
599.164748	0.999279
599.515657	0.999142
599.866511	0.999637
600.217312	0.999766
600.568060	0.999889
600.918753	1.000344
601.269392	0.999844
601.619978	0.999992
601.970510	1.000706
602.320988	1.000364
602.671412	0.999190
603.021783	1.000407
603.372100	1.000528
603.722363	0.999594
604.072572	0.999625
604.422728	1.000002
604.772830	0.999727
605.122878	0.999282
605.472872	0.999898
605.822813	0.998769
606.172701	0.999376
606.522534	1.000746
606.872314	0.999926
607.222041	0.999797
607.571714	1.000872
607.921333	0.999468
608.270899	0.999694
608.620411	0.999727
608.969870	1.000730
609.319276	0.999747
609.668627	1.000523
610.017926	0.999218
610.367171	1.000365
610.716362	0.999562
611.065500	0.999239
611.414585	0.999957
611.763616	0.999756
612.112594	0.998912
612.461518	0.998965
612.810389	0.999376
613.159207	0.999683
613.507971	0.999759
613.856682	1.000007
614.205340	1.000437
614.553945	0.999095
614.902496	0.999131
615.250994	0.999297
615.599439	0.999716
615.947830	0.999886
616.296169	0.999566
616.644454	0.998680
616.992686	0.999905
617.340864	0.999027
617.688990	0.999561
618.037063	0.999868
618.385082	0.999894
618.733048	0.999806
619.080961	0.999657
619.428821	0.999833
619.776628	0.999339
620.124382	0.999957
620.472083	0.998509
620.819731	0.999328
621.167326	0.999554
621.514868	0.999297
621.862357	0.999055
622.209793	1.000569
622.557176	0.998712
622.904506	0.998326
623.251783	0.998559
623.599007	0.999878
623.946179	0.999309
624.293297	0.999377
624.640363	0.999158
624.987376	0.999028
625.334336	0.999683
625.681243	0.999749
626.028097	0.999625
626.374899	1.000093
626.721647	0.999852
627.068343	1.000189
627.414987	0.999491
627.761577	0.999334
628.108115	1.000107
628.454600	0.999890
628.801032	0.999306
629.147412	0.999234
629.493739	0.999551
629.840014	0.999465
630.186236	0.999591
630.532405	0.999280
630.878521	0.999004
631.224585	0.999720
631.570597	0.999224
631.916556	0.999226
632.262462	0.999423
632.608316	0.999943
632.954117	0.999157
633.299866	0.999930
633.645562	0.999151
633.991206	0.999317
634.336797	1.000162
634.682336	0.999043
635.027823	0.999935
635.373257	0.999660
635.718639	0.999333
636.063968	0.998730
636.409245	0.999500
636.754470	0.999408
637.099642	1.000121
637.444762	0.999878
637.789829	0.998847
638.134845	1.000169
638.479808	0.999423
638.824719	1.000240
639.169577	0.999550
639.514383	0.999425
639.859137	0.998997
640.203839	0.999579
640.548489	0.999255
640.893086	1.000099
641.237632	1.000215
641.582125	0.999614
641.926566	0.999067
642.270955	0.999225
642.615292	0.999915
642.959576	0.999523
643.303809	0.999734
643.647990	0.999163
643.992118	0.998644
644.336195	0.999379
644.680219	0.999482
645.024192	0.999630
645.368112	0.999003
645.711981	0.999811
646.055797	0.999635
646.399562	0.999086
646.743274	0.997552
647.086935	0.999005
647.430544	0.998782
647.774101	0.998974
648.117606	0.999175
648.461059	0.998641
648.804460	0.997908
649.147810	0.999148
649.491108	0.999277
649.834354	0.998370
650.177548	0.999722
650.520690	0.998973
650.863781	1.000403
651.206820	0.998874
651.549807	0.998908
651.892742	0.999357
652.235626	0.999726
652.578458	0.999321
652.921238	0.999617
653.263967	0.999707
653.606644	1.000115
653.949269	0.999692
654.291843	0.998929
654.634365	0.999349
654.976836	0.999494
655.319255	0.999084
655.661622	0.999791
656.003938	0.999498
656.346203	0.999486
656.688416	0.999522
657.030577	1.000169
657.372687	0.998699
657.714746	0.999002
658.056753	0.999667
658.398708	0.999814
658.740612	0.999678
659.082465	0.999893
659.424266	1.000033
659.766016	0.998898
660.107715	0.999205
660.449362	0.998900
660.790958	0.998891
661.132503	0.997546
661.473996	0.999314
661.815438	0.999514
662.156829	0.998867
662.498168	0.999224
662.839456	0.999018
663.180693	0.999222
663.521879	0.999991
663.863013	1.000417
664.204097	0.999687
664.545129	0.999222
664.886110	0.999110
665.227040	0.999445
665.567918	0.999167
665.908746	0.999103
666.249522	0.998557
666.590248	0.998647
666.930922	0.999758
667.271545	0.998997
667.612118	0.999733
667.952639	0.999035
668.293109	0.998315
668.633528	0.998987
668.973896	0.999525
669.314213	0.998928
669.654480	0.999744
669.994695	0.999034
670.334859	0.998798
670.674973	0.999270
671.015035	0.999443
671.355047	0.998844
671.695008	0.999167
672.034918	0.998094
672.374777	0.999165
672.714585	0.998531
673.054342	0.999275
673.394049	0.998605
673.733705	0.998809
674.073310	0.998779
674.412864	0.998928
674.752368	0.998717
675.091820	1.000112
675.431223	0.999085
675.770574	0.999012
676.109875	0.998986
676.449125	0.999207
676.788324	0.998835
677.127473	0.999837
677.466571	0.999113
677.805619	0.998918
678.144616	1.000383
678.483562	0.998649
678.822458	0.998543
679.161303	1.000047
679.500098	0.999096
679.838842	1.000090
680.177535	0.999762
680.516179	0.999576
680.854771	0.999266
681.193314	0.998676
681.531805	0.998872
681.870247	0.999294
682.208638	0.998680
682.546978	0.998222
682.885268	0.998364
683.223508	0.998844
683.561697	0.997670
683.899836	0.999220
684.237925	0.999278
684.575963	0.998591
684.913951	0.998121
685.251889	0.999279
685.589776	0.998609
685.927614	0.998767
686.265401	0.997890
686.603137	0.997843
686.940824	0.997885
687.278460	0.998112
687.616046	0.997779
687.953582	0.997052
688.291068	0.997331
688.628504	0.998488
