Dividing Wavelength (nm)	Counts (n)	Blue Motor Position (mm): 0.000000	Red Motor Position (mm): 45.100000	
326.493990	1.001229
326.888308	1.001229
327.282561	1.001229
327.676750	0.999740
328.070874	0.998937
328.464933	0.999948
328.858929	0.999133
329.252859	0.999331
329.646726	0.998729
330.040528	1.000531
330.434265	0.997953
330.827938	1.000570
331.221547	0.999762
331.615091	1.001085
332.008571	1.000341
332.401986	1.000954
332.795338	0.999673
333.188625	0.999091
333.581847	1.000857
333.975006	0.999218
334.368100	0.999118
334.761129	0.998690
335.154095	1.000447
335.546996	0.999688
335.939833	0.997827
336.332606	0.998178
336.725315	1.000383
337.117960	1.000096
337.510540	0.998581
337.903056	0.999458
338.295508	0.999142
338.687896	0.998873
339.080220	0.999754
339.472480	0.998979
339.864676	0.999045
340.256807	0.999772
340.648875	1.001410
341.040879	1.000350
341.432818	0.999604
341.824694	0.999395
342.216506	0.998579
342.608253	0.999297
342.999937	0.998942
343.391557	0.999401
343.783113	0.997918
344.174605	0.998953
344.566033	0.998961
344.957397	0.999822
345.348697	0.997978
345.739934	0.999440
346.131106	0.998724
346.522215	0.997551
346.913260	0.998389
347.304241	0.998660
347.695159	0.998580
348.086012	0.997947
348.476802	0.999092
348.867528	1.000016
349.258191	0.998622
349.648789	0.999641
350.039324	0.998083
350.429796	1.000485
350.820203	1.000303
351.210548	0.999542
351.600828	0.999089
351.991045	0.997786
352.381198	0.997173
352.771288	0.998695
353.161314	0.998990
353.551276	1.000323
353.941175	0.997993
354.331010	0.999070
354.720782	0.999304
355.110490	0.998890
355.500135	0.999852
355.889717	0.999597
356.279235	0.999170
356.668689	0.998839
357.058080	0.999610
357.447408	1.000688
357.836672	1.000114
358.225873	1.000749
358.615010	0.998881
359.004084	1.000345
359.393095	0.999430
359.782043	0.999652
360.170927	1.000024
360.559748	0.999632
360.948505	0.998797
361.337199	0.999676
361.725830	0.999279
362.114398	0.998700
362.502903	1.000210
362.891344	0.999449
363.279722	0.997810
363.668037	0.999551
364.056289	0.999488
364.444478	1.000187
364.832603	0.999313
365.220665	0.998623
365.608665	0.999327
365.996601	0.999004
366.384474	1.001176
366.772284	0.999191
367.160031	0.998110
367.547715	0.997810
367.935336	0.999123
368.322893	0.999509
368.710388	0.998835
369.097820	0.999652
369.485189	0.998742
369.872495	0.999213
370.259738	0.997684
370.646918	0.998865
371.034035	0.999090
371.421090	0.999278
371.808081	0.998771
372.195010	1.001166
372.581875	0.999342
372.968678	0.999474
373.355418	0.998447
373.742096	0.999872
374.128710	0.999754
374.515262	0.998118
374.901751	1.000665
375.288177	0.999609
375.674540	1.000066
376.060841	0.998674
376.447079	0.999652
376.833254	0.998773
377.219367	0.999559
377.605417	0.999519
377.991404	1.000048
378.377329	0.998983
378.763191	0.999924
379.148991	1.000575
379.534727	0.999730
379.920402	0.999890
380.306013	0.999779
380.691563	1.000802
381.077049	1.000131
381.462474	0.999912
381.847835	0.999824
382.233134	1.000052
382.618371	1.001001
383.003545	0.999906
383.388657	1.000282
383.773706	1.000391
384.158693	1.001381
384.543618	0.999995
384.928480	1.000817
385.313280	1.000652
385.698017	1.000664
386.082692	1.000714
386.467305	1.000605
386.851856	0.999907
387.236344	1.000526
387.620770	0.999660
388.005133	1.000398
388.389435	1.001546
388.773674	0.999524
389.157851	1.000546
389.541965	1.000099
389.926018	1.000410
390.310008	1.001796
390.693936	1.000272
391.077802	1.000798
391.461606	1.000142
391.845348	0.999665
392.229027	1.001666
392.612645	1.001203
392.996200	1.001529
393.379694	0.999863
393.763125	1.001139
394.146494	1.000719
394.529801	1.000082
394.913047	1.001923
395.296230	1.000574
395.679351	0.999938
396.062410	1.000635
396.445408	1.001167
396.828343	1.000482
397.211217	0.999976
397.594028	1.001099
397.976778	1.000555
398.359466	1.000572
398.742092	1.000140
399.124656	1.000942
399.507158	1.000905
399.889598	1.000913
400.271977	1.001165
400.654294	1.001478
401.036549	1.001914
401.418742	1.001180
401.800874	1.000240
402.182944	1.000085
402.564952	1.000291
402.946898	1.002222
403.328783	1.001742
403.710606	1.000086
404.092367	1.000575
404.474067	1.001347
404.855705	1.001022
405.237282	1.001220
405.618797	1.000423
406.000250	1.000500
406.381642	1.000939
406.762972	1.001029
407.144240	1.001428
407.525447	1.001491
407.906593	1.000939
408.287677	1.001219
408.668700	1.001236
409.049661	1.000533
409.430560	1.001652
409.811399	1.001203
410.192176	1.000662
410.572891	1.001983
410.953545	1.000420
411.334138	1.000670
411.714669	1.000967
412.095139	0.999989
412.475547	1.001440
412.855894	1.000832
413.236180	1.001608
413.616405	1.001791
413.996568	1.001234
414.376670	1.000797
414.756711	1.001141
415.136691	1.001139
415.516609	1.000796
415.896466	1.001441
416.276262	0.999798
416.655997	1.002244
417.035670	1.000053
417.415283	1.001441
417.794834	1.000847
418.174324	1.001012
418.553753	1.001822
418.933121	1.000072
419.312428	1.001332
419.691674	1.000625
420.070859	1.001383
420.449983	1.000560
420.829045	1.001560
421.208047	1.001880
421.586988	1.002330
421.965867	1.001259
422.344686	1.001907
422.723444	1.000852
423.102141	1.001546
423.480777	1.001626
423.859352	1.001157
424.237866	1.001070
424.616319	1.001108
424.994712	1.000908
425.373044	1.001944
425.751314	1.002002
426.129524	1.001351
426.507673	1.001270
426.885762	1.002578
427.263789	1.001343
427.641756	1.001295
428.019662	1.002276
428.397508	1.000271
428.775292	1.000835
429.153016	1.001215
429.530679	1.001842
429.908282	1.001361
430.285824	1.000682
430.663305	1.001148
431.040726	1.001372
431.418086	1.002211
431.795385	1.001650
432.172624	1.000455
432.549802	1.002163
432.926920	1.001976
433.303977	1.000198
433.680974	1.000514
434.057910	1.000006
434.434786	1.001462
434.811601	1.000916
435.188355	1.000235
435.565050	1.001258
435.941683	1.000711
436.318257	1.002277
436.694770	1.000794
437.071222	1.001026
437.447614	1.001234
437.823946	1.001765
438.200218	1.001418
438.576429	1.001566
438.952580	1.001490
439.328670	1.000864
439.704700	1.001023
440.080670	1.001333
440.456580	1.000962
440.832429	1.000811
441.208218	1.001558
441.583947	1.000759
441.959616	1.001609
442.335224	1.000755
442.710773	1.002790
443.086261	1.001152
443.461689	1.001142
443.837057	1.001240
444.212365	1.001596
444.587612	1.000738
444.962800	1.001254
445.337927	1.001804
445.712995	1.001770
446.088002	1.002101
446.462949	1.001461
446.837837	1.001514
447.212664	1.001972
447.587431	1.001951
447.962139	1.001757
448.336786	1.001388
448.711374	1.001636
449.085901	1.001297
449.460369	1.001709
449.834776	1.001631
450.209124	1.001544
450.583412	1.002016
450.957640	1.001304
451.331808	1.002100
451.705917	1.000774
452.079965	1.001438
452.453954	1.001408
452.827883	1.001905
453.201752	1.000993
453.575562	1.002330
453.949311	1.001847
454.323001	1.001620
454.696632	1.001422
455.070202	1.000893
455.443713	1.000981
455.817164	1.002017
456.190556	1.002268
456.563888	1.001245
456.937160	1.001336
457.310373	1.000799
457.683526	1.001189
458.056619	1.001345
458.429653	1.001734
458.802628	1.001235
459.175542	1.000760
459.548398	1.001965
459.921194	1.001190
460.293930	1.001942
460.666607	1.000651
461.039224	1.000724
461.411782	1.002192
461.784280	1.001305
462.156719	1.002236
462.529099	1.002009
462.901419	1.001923
463.273680	1.001663
463.645882	1.001251
464.018024	1.001337
464.390106	1.002064
464.762130	1.002140
465.134094	1.002045
465.505999	1.002219
465.877845	1.001723
466.249631	1.001934
466.621358	1.001571
466.993026	1.001771
467.364634	1.002248
467.736184	1.001906
468.107674	1.001488
468.479105	1.001406
468.850477	1.001808
469.221790	1.001395
469.593043	1.002168
469.964238	1.003384
470.335373	1.001565
470.706449	1.001310
471.077467	1.001820
471.448425	1.001444
471.819324	1.001825
472.190164	1.000823
472.560945	1.002156
472.931667	1.001521
473.302330	1.000814
473.672934	1.001744
474.043479	1.001933
474.413965	1.001377
474.784393	1.002444
475.154761	1.001293
475.525070	1.001045
475.895321	1.002140
476.265513	1.001723
476.635645	1.001691
477.005719	1.002315
477.375734	1.001661
477.745691	1.001395
478.115588	1.002299
478.485427	1.001542
478.855207	1.001498
479.224928	1.001448
479.594591	1.001918
479.964194	1.001895
480.333739	1.002318
480.703226	1.001511
481.072653	1.002059
481.442022	1.002369
481.811333	1.001480
482.180584	1.002383
482.549777	1.001241
482.918912	1.001995
483.287988	1.001247
483.657005	1.002934
484.025964	1.002735
484.394864	1.002678
484.763706	1.001748
485.132489	1.002442
485.501213	1.002134
485.869879	1.002115
486.238487	1.002234
486.607036	1.002814
486.975527	1.000576
487.343959	1.001274
487.712333	1.001302
488.080648	1.001809
488.448905	1.002073
488.817104	1.002115
489.185244	1.001979
489.553326	1.002001
489.921350	1.002172
490.289315	1.001917
490.657222	1.002250
491.025070	1.002472
491.392861	1.001999
491.760593	1.002366
492.128267	1.002731
492.495883	1.001666
492.863440	1.001400
493.230939	1.002124
493.598380	1.002002
493.965763	1.001309
494.333088	1.002042
494.700354	1.001373
495.067563	1.001735
495.434713	1.001613
495.801805	1.002632
496.168839	1.001711
496.535815	1.000735
496.902733	1.001785
497.269593	1.001807
497.636395	1.001920
498.003139	1.001398
498.369825	1.001736
498.736453	1.001300
499.103023	1.001115
499.469535	1.001189
499.835989	1.001875
500.202385	1.001807
500.568723	1.001752
500.935003	1.002138
501.301226	1.001972
501.667390	1.001869
502.033497	1.001978
502.399546	1.002650
502.765537	1.001731
503.131470	1.001550
503.497345	1.001186
503.863163	1.002832
504.228923	1.001718
504.594625	1.002156
504.960269	1.001884
505.325856	1.002071
505.691385	1.001912
506.056856	1.001609
506.422270	1.001141
506.787625	1.001821
507.152924	1.001731
507.518164	1.001339
507.883347	1.001741
508.248472	1.001942
508.613540	1.002230
508.978550	1.002458
509.343503	1.001670
509.708398	1.001941
510.073236	1.002452
510.438016	1.001992
510.802738	1.002258
511.167403	1.001571
511.532010	1.001421
511.896561	1.001804
512.261053	1.003098
512.625488	1.001663
512.989866	1.001977
513.354186	1.001331
513.718449	1.001714
514.082655	1.001715
514.446803	1.001673
514.810894	1.001962
515.174927	1.001529
515.538904	1.001551
515.902822	1.002391
516.266684	1.001431
516.630488	1.002522
516.994235	1.001185
517.357925	1.001948
517.721558	1.001852
518.085133	1.001430
518.448651	1.002485
518.812112	1.002083
519.175516	1.000692
519.538863	1.002433
519.902152	1.001447
520.265385	1.001391
520.628560	1.001427
520.991678	1.001628
521.354739	1.002185
521.717743	1.001791
522.080690	1.001719
522.443580	1.001310
522.806413	1.001686
523.169189	1.001615
523.531908	1.000882
523.894569	1.002358
524.257174	1.002085
524.619722	1.002027
524.982213	1.001846
525.344647	1.001434
525.707025	1.001275
526.069345	1.001323
526.431608	1.001750
526.793815	1.002046
527.155964	1.001575
527.518057	1.001700
527.880093	1.002465
528.242072	1.002015
528.603995	1.001927
528.965860	1.002518
529.327669	1.001439
529.689421	1.001867
530.051117	1.002392
530.412755	1.002190
530.774337	1.001904
531.135862	1.002470
531.497331	1.001785
531.858743	1.001882
532.220098	1.001823
532.581396	1.001763
532.942638	1.001602
533.303824	1.001722
533.664953	1.001893
534.026025	1.000920
534.387040	1.001770
534.747999	1.001709
535.108902	1.002085
535.469748	1.001436
535.830537	1.001745
536.191270	1.001476
536.551947	1.001657
536.912567	1.001305
537.273131	1.002292
537.633638	1.001322
537.994089	1.001352
538.354483	1.002346
538.714821	1.001652
539.075103	1.001382
539.435328	1.001478
539.795497	1.001991
540.155609	1.001283
540.515665	1.001314
540.875665	1.000996
541.235609	1.001871
541.595496	1.001285
541.955328	1.001320
542.315102	1.001562
542.674821	1.002203
543.034483	1.000794
543.394090	1.001029
543.753640	1.001901
544.113134	1.001533
544.472571	1.001375
544.831953	1.001048
545.191278	1.001219
545.550548	1.001310
545.909761	1.000328
546.268918	1.001626
546.628019	1.001190
546.987064	1.001037
547.346053	1.001718
547.704986	1.001791
548.063863	1.001594
548.422684	1.001311
548.781449	1.002006
549.140158	1.001215
549.498811	1.001345
549.857408	1.001499
550.215949	1.001773
550.574434	1.001438
550.932864	1.001134
551.291237	1.001863
551.649555	1.001435
552.007817	1.001296
552.366022	1.000769
552.724173	1.001450
553.082267	1.001805
553.440305	1.001037
553.798288	1.001175
554.156215	1.000782
554.514086	1.001654
554.871902	1.000864
555.229661	1.000878
555.587365	1.001087
555.945014	1.001688
556.302606	1.000700
556.660143	1.001483
557.017625	1.000889
557.375050	1.001084
557.732421	1.000952
558.089735	1.001303
558.446994	1.001769
558.804197	1.001421
559.161345	1.002141
559.518437	1.002045
559.875474	1.000833
560.232455	1.000825
560.589381	1.001735
560.946251	1.000712
561.303065	1.001089
561.659825	1.001934
562.016528	1.000984
562.373177	1.000927
562.729770	1.001372
563.086307	1.000963
563.442789	1.001542
563.799216	1.001501
564.155587	1.000236
564.511904	1.000315
564.868164	1.000697
565.224370	1.001120
565.580520	1.000980
565.936615	1.000798
566.292654	1.000948
566.648638	1.001662
567.004567	1.001284
567.360441	1.001744
567.716260	1.001333
568.072023	1.001081
568.427732	1.000812
568.783385	1.001751
569.138982	1.001483
569.494525	1.000975
569.850013	1.001474
570.205445	1.001009
570.560823	1.001377
570.916145	1.001032
571.271412	1.001276
571.626625	1.001166
571.981782	1.001119
572.336884	1.001992
572.691931	1.001151
573.046923	1.000169
573.401860	1.001070
573.756743	1.001076
574.111570	1.001201
574.466342	1.001434
574.821059	1.001395
575.175722	1.001093
575.530330	1.001590
575.884882	1.000553
576.239380	1.001725
576.593823	1.000440
576.948211	1.000710
577.302544	1.001277
577.656823	1.002052
578.011047	1.001028
578.365216	1.000912
578.719330	1.000598
579.073389	1.001765
579.427394	1.000954
579.781344	1.001615
580.135239	1.001560
580.489080	1.000854
580.842866	1.001191
581.196597	1.000918
581.550273	1.000569
581.903895	1.001439
582.257463	1.000887
582.610975	1.001267
582.964434	1.001455
583.317837	1.002007
583.671186	1.000628
584.024481	1.000546
584.377721	1.000808
584.730906	1.000651
585.084037	1.001410
585.437113	1.000921
585.790135	1.001335
586.143103	1.000716
586.496016	1.001101
586.848874	1.001455
587.201679	1.001241
587.554428	1.000889
587.907124	1.000901
588.259765	1.001037
588.612352	1.001367
588.964884	1.001385
589.317362	1.000706
589.669786	1.000801
590.022155	1.001964
590.374470	1.001040
590.726731	1.000975
591.078937	1.000505
591.431090	1.001284
591.783188	1.001080
592.135232	1.001067
592.487222	1.001122
592.839157	1.001473
593.191038	1.001728
593.542866	1.000411
593.894639	1.001007
594.246358	1.000652
594.598022	1.001029
594.949633	1.000786
595.301190	1.000062
595.652692	1.000835
596.004141	1.001449
596.355535	1.000611
596.706876	1.000804
597.058162	1.000980
597.409395	1.001190
597.760573	1.000934
598.111698	1.001175
598.462768	1.000422
598.813785	1.000262
599.164748	1.001302
599.515657	1.000113
599.866511	1.000685
600.217312	1.000876
600.568060	1.001480
600.918753	1.001248
601.269392	1.001178
601.619978	1.001356
601.970510	1.000911
602.320988	1.001262
602.671412	1.000429
603.021783	1.001055
603.372100	1.001658
603.722363	1.001471
604.072572	1.000268
604.422728	1.000800
604.772830	1.000355
605.122878	1.000594
605.472872	1.001139
605.822813	1.000348
606.172701	1.000339
606.522534	1.001602
606.872314	1.000909
607.222041	1.000212
607.571714	1.001471
607.921333	0.999944
608.270899	1.000085
608.620411	1.001142
608.969870	1.000927
609.319276	1.000391
609.668627	1.001667
610.017926	0.999598
610.367171	1.001228
610.716362	1.000053
611.065500	1.000449
611.414585	1.000223
611.763616	1.000974
612.112594	1.000128
612.461518	1.000808
612.810389	1.000390
613.159207	1.001017
613.507971	1.000025
613.856682	1.000511
614.205340	1.001030
614.553945	0.999886
614.902496	1.000005
615.250994	0.999964
615.599439	1.000975
615.947830	1.000443
616.296169	1.000106
616.644454	0.999689
616.992686	1.000377
617.340864	1.000588
617.688990	1.000293
618.037063	1.000143
618.385082	0.999996
618.733048	1.000349
619.080961	1.000177
619.428821	1.000738
619.776628	0.999458
620.124382	1.000047
620.472083	0.999473
620.819731	1.000235
621.167326	0.999814
621.514868	0.999534
621.862357	0.999733
622.209793	1.000626
622.557176	0.998303
622.904506	0.999983
623.251783	0.999793
623.599007	0.999887
623.946179	1.000571
624.293297	1.000099
624.640363	1.000317
624.987376	0.999494
625.334336	0.999909
625.681243	1.000162
626.028097	1.000823
626.374899	0.999814
626.721647	1.000231
627.068343	1.000308
627.414987	0.999260
627.761577	0.999733
628.108115	1.000098
628.454600	1.000437
628.801032	0.999841
629.147412	1.000113
629.493739	0.999665
629.840014	0.999259
630.186236	0.999324
630.532405	0.999709
630.878521	0.998841
631.224585	0.999380
631.570597	1.000172
631.916556	0.999758
632.262462	0.999999
632.608316	0.999949
632.954117	0.999057
633.299866	0.999152
633.645562	0.999733
633.991206	1.000008
634.336797	1.000535
634.682336	0.999070
635.027823	1.000341
635.373257	1.000095
635.718639	0.999396
636.063968	0.999137
636.409245	0.999487
636.754470	0.999511
637.099642	1.000581
637.444762	0.998780
637.789829	0.998860
638.134845	0.999754
638.479808	0.999259
638.824719	0.999798
639.169577	0.998922
639.514383	0.999160
639.859137	0.998596
640.203839	0.999609
640.548489	0.998784
640.893086	0.999669
641.237632	1.000162
641.582125	0.998422
641.926566	0.998468
642.270955	0.999147
642.615292	0.998431
642.959576	0.998946
643.303809	0.999807
643.647990	0.998909
643.992118	0.998252
644.336195	0.999098
644.680219	0.998646
645.024192	0.999508
645.368112	0.998091
645.711981	0.998908
646.055797	0.998407
646.399562	0.998543
646.743274	0.997664
647.086935	0.998757
647.430544	0.997454
647.774101	0.998563
648.117606	0.998523
648.461059	0.997781
648.804460	0.997162
649.147810	0.998042
649.491108	0.998638
649.834354	0.998172
650.177548	0.998437
650.520690	0.998129
650.863781	0.997828
651.206820	0.998804
651.549807	0.998284
651.892742	0.998181
652.235626	0.997718
652.578458	0.998610
652.921238	0.997488
653.263967	0.998443
653.606644	0.997805
653.949269	0.997288
654.291843	0.997373
654.634365	0.996792
654.976836	0.997677
655.319255	0.996987
655.661622	0.996925
656.003938	0.996336
656.346203	0.996576
656.688416	0.997301
657.030577	0.997838
657.372687	0.995746
657.714746	0.996264
658.056753	0.996312
658.398708	0.996764
658.740612	0.996759
659.082465	0.996461
659.424266	0.997183
659.766016	0.995092
660.107715	0.995782
660.449362	0.995645
660.790958	0.995687
661.132503	0.994492
661.473996	0.995120
661.815438	0.995529
662.156829	0.994573
662.498168	0.995537
662.839456	0.993867
663.180693	0.995098
663.521879	0.995003
663.863013	0.995896
664.204097	0.994707
664.545129	0.994686
664.886110	0.994553
665.227040	0.993499
665.567918	0.993326
665.908746	0.993739
666.249522	0.993008
666.590248	0.992352
666.930922	0.993153
667.271545	0.992374
667.612118	0.993228
667.952639	0.992585
668.293109	0.991445
668.633528	0.991898
668.973896	0.992128
669.314213	0.990928
669.654480	0.991985
669.994695	0.991896
670.334859	0.991445
670.674973	0.990050
671.015035	0.991663
671.355047	0.990669
671.695008	0.991006
672.034918	0.990288
672.374777	0.989851
672.714585	0.989252
673.054342	0.989282
673.394049	0.988408
673.733705	0.987750
674.073310	0.988819
674.412864	0.988805
674.752368	0.988213
675.091820	0.988607
675.431223	0.987582
675.770574	0.987388
676.109875	0.987640
676.449125	0.987269
676.788324	0.985844
677.127473	0.988192
677.466571	0.986485
677.805619	0.986421
678.144616	0.986433
678.483562	0.986574
678.822458	0.986897
679.161303	0.987451
679.500098	0.986012
679.838842	0.985851
680.177535	0.986203
680.516179	0.985791
680.854771	0.984931
681.193314	0.984397
681.531805	0.983699
681.870247	0.981952
682.208638	0.981107
682.546978	0.980222
682.885268	0.981249
683.223508	0.980787
683.561697	0.979830
683.899836	0.980256
684.237925	0.980318
684.575963	0.979143
684.913951	0.979805
685.251889	0.979006
685.589776	0.978624
685.927614	0.978440
686.265401	0.977326
686.603137	0.976573
686.940824	0.975598
687.278460	0.976214
687.616046	0.974676
687.953582	0.973247
688.291068	0.973549
688.628504	0.973095
