Dividing Wavelength (nm)	Counts (n)	Blue Motor Position (mm): 0.000000	Red Motor Position (mm): 45.800000	
326.493990	1.000669
326.888308	1.000669
327.282561	1.000669
327.676750	0.999319
328.070874	0.999299
328.464933	1.000049
328.858929	0.999880
329.252859	0.999017
329.646726	0.999303
330.040528	0.999991
330.434265	0.999966
330.827938	1.000621
331.221547	1.000928
331.615091	1.000488
332.008571	0.999860
332.401986	0.999529
332.795338	0.999318
333.188625	0.998377
333.581847	1.000768
333.975006	0.999733
334.368100	0.999459
334.761129	0.999637
335.154095	1.000169
335.546996	0.999535
335.939833	0.998213
336.332606	0.999601
336.725315	1.000500
337.117960	1.001210
337.510540	0.999426
337.903056	1.000424
338.295508	0.998950
338.687896	0.999545
339.080220	0.998807
339.472480	0.999999
339.864676	0.998601
340.256807	0.998980
340.648875	1.001133
341.040879	0.999662
341.432818	1.000109
341.824694	0.999364
342.216506	1.000006
342.608253	0.998721
342.999937	1.000049
343.391557	1.000463
343.783113	1.000135
344.174605	0.999235
344.566033	1.000173
344.957397	0.998905
345.348697	0.999462
345.739934	0.999038
346.131106	0.998717
346.522215	0.998073
346.913260	1.000098
347.304241	1.000050
347.695159	0.999308
348.086012	0.998086
348.476802	0.999256
348.867528	0.999171
349.258191	0.997443
349.648789	1.001154
350.039324	0.998973
350.429796	1.000382
350.820203	0.999595
351.210548	0.998598
351.600828	0.999987
351.991045	0.999699
352.381198	0.999215
352.771288	0.999788
353.161314	0.999722
353.551276	1.000073
353.941175	0.999333
354.331010	0.998461
354.720782	0.999185
355.110490	0.999838
355.500135	0.999770
355.889717	0.999172
356.279235	0.998643
356.668689	1.000329
357.058080	0.999463
357.447408	1.001427
357.836672	1.000018
358.225873	1.000091
358.615010	0.999103
359.004084	1.002064
359.393095	0.999207
359.782043	0.999472
360.170927	1.000103
360.559748	1.001163
360.948505	0.998756
361.337199	0.999918
361.725830	1.000120
362.114398	1.000000
362.502903	1.000369
362.891344	1.001288
363.279722	0.999183
363.668037	0.999779
364.056289	1.000359
364.444478	1.000017
364.832603	1.000295
365.220665	0.998916
365.608665	0.999869
365.996601	0.999678
366.384474	0.999759
366.772284	0.999202
367.160031	0.998528
367.547715	0.997992
367.935336	0.999158
368.322893	0.999584
368.710388	0.998367
369.097820	0.998155
369.485189	0.998934
369.872495	0.998976
370.259738	0.997895
370.646918	1.000760
371.034035	1.001193
371.421090	0.999997
371.808081	0.998996
372.195010	1.000672
372.581875	1.000303
372.968678	0.999915
373.355418	0.999461
373.742096	0.998335
374.128710	1.001470
374.515262	0.999982
374.901751	1.000212
375.288177	0.999916
375.674540	0.999481
376.060841	0.998975
376.447079	0.999889
376.833254	0.999401
377.219367	0.999477
377.605417	0.999584
377.991404	1.000537
378.377329	0.999322
378.763191	1.000085
379.148991	1.000155
379.534727	0.999982
379.920402	1.000374
380.306013	0.998806
380.691563	0.999634
381.077049	0.998993
381.462474	0.999457
381.847835	1.000206
382.233134	0.999208
382.618371	1.000326
383.003545	0.999694
383.388657	1.000034
383.773706	1.000231
384.158693	0.999346
384.543618	0.999749
384.928480	0.999713
385.313280	0.999767
385.698017	1.001040
386.082692	1.000283
386.467305	1.000901
386.851856	0.999056
387.236344	0.998759
387.620770	0.999079
388.005133	1.000535
388.389435	1.000933
388.773674	0.999885
389.157851	0.999960
389.541965	1.000114
389.926018	0.999733
390.310008	1.000553
390.693936	0.999910
391.077802	1.000476
391.461606	0.999080
391.845348	1.001379
392.229027	1.001113
392.612645	1.000330
392.996200	1.001195
393.379694	0.999761
393.763125	1.001591
394.146494	1.000098
394.529801	0.999926
394.913047	1.001083
395.296230	0.999735
395.679351	0.999954
396.062410	1.000025
396.445408	0.999697
396.828343	0.999853
397.211217	1.000804
397.594028	1.000584
397.976778	1.000487
398.359466	1.000049
398.742092	0.999731
399.124656	0.999910
399.507158	1.000330
399.889598	1.000406
400.271977	0.999846
400.654294	1.000720
401.036549	1.000883
401.418742	1.000053
401.800874	1.000061
402.182944	1.000348
402.564952	0.999827
402.946898	1.000379
403.328783	1.000306
403.710606	0.999853
404.092367	1.000344
404.474067	0.999985
404.855705	1.000117
405.237282	1.001005
405.618797	1.000397
406.000250	1.000243
406.381642	1.000328
406.762972	0.999715
407.144240	1.001550
407.525447	1.000896
407.906593	1.001294
408.287677	1.000299
408.668700	1.000875
409.049661	0.999642
409.430560	1.000743
409.811399	0.999340
410.192176	0.999963
410.572891	1.000062
410.953545	1.000838
411.334138	0.998964
411.714669	1.000684
412.095139	0.999691
412.475547	1.001258
412.855894	1.000600
413.236180	1.000548
413.616405	1.000205
413.996568	1.000954
414.376670	1.000435
414.756711	1.000288
415.136691	1.000391
415.516609	0.999270
415.896466	1.000113
416.276262	0.999520
416.655997	1.000784
417.035670	1.000231
417.415283	1.000121
417.794834	1.000196
418.174324	1.000410
418.553753	1.000888
418.933121	1.000505
419.312428	0.999655
419.691674	0.999796
420.070859	1.000391
420.449983	0.999821
420.829045	1.000289
421.208047	1.000649
421.586988	1.000789
421.965867	1.000019
422.344686	1.000655
422.723444	1.000797
423.102141	1.000686
423.480777	1.000496
423.859352	0.999353
424.237866	0.999734
424.616319	0.999773
424.994712	0.999988
425.373044	0.999841
425.751314	0.999885
426.129524	0.999108
426.507673	1.000624
426.885762	1.001451
427.263789	1.000119
427.641756	1.000155
428.019662	1.000702
428.397508	0.999659
428.775292	0.999245
429.153016	1.000039
429.530679	1.001646
429.908282	1.001130
430.285824	1.000407
430.663305	0.999688
431.040726	1.000324
431.418086	1.001030
431.795385	1.000819
432.172624	0.999786
432.549802	1.001421
432.926920	1.000159
433.303977	1.000220
433.680974	1.000093
434.057910	1.000047
434.434786	1.000932
434.811601	0.999734
435.188355	0.999856
435.565050	0.999233
435.941683	0.999970
436.318257	1.001099
436.694770	1.000040
437.071222	0.999774
437.447614	1.000307
437.823946	1.000754
438.200218	1.000673
438.576429	1.000693
438.952580	1.000329
439.328670	0.999701
439.704700	1.000987
440.080670	1.000415
440.456580	0.999802
440.832429	1.000011
441.208218	1.000472
441.583947	1.000620
441.959616	1.001364
442.335224	1.000413
442.710773	1.001178
443.086261	1.000457
443.461689	1.000513
443.837057	1.000370
444.212365	1.000831
444.587612	1.000561
444.962800	1.000305
445.337927	1.000883
445.712995	1.000216
446.088002	1.001325
446.462949	1.000996
446.837837	1.000831
447.212664	1.000234
447.587431	1.000523
447.962139	1.000078
448.336786	1.000179
448.711374	1.000960
449.085901	0.999620
449.460369	1.000683
449.834776	1.000026
450.209124	1.000740
450.583412	1.000234
450.957640	1.000258
451.331808	1.000322
451.705917	1.000263
452.079965	0.999828
452.453954	1.000677
452.827883	1.000023
453.201752	1.000890
453.575562	1.001320
453.949311	1.000814
454.323001	1.000381
454.696632	1.000532
455.070202	1.000443
455.443713	1.000602
455.817164	1.000194
456.190556	1.000653
456.563888	1.000373
456.937160	1.001302
457.310373	1.000124
457.683526	1.000513
458.056619	1.000166
458.429653	1.001008
458.802628	0.999827
459.175542	1.000172
459.548398	1.000439
459.921194	1.000760
460.293930	1.000225
460.666607	1.000004
461.039224	0.999417
461.411782	1.000673
461.784280	0.999824
462.156719	1.001565
462.529099	1.000936
462.901419	1.000487
463.273680	1.000085
463.645882	1.000219
464.018024	1.000715
464.390106	1.000161
464.762130	1.001275
465.134094	0.999983
465.505999	1.001535
465.877845	1.000690
466.249631	1.000984
466.621358	1.000500
466.993026	1.000239
467.364634	1.000849
467.736184	1.000781
468.107674	1.000302
468.479105	0.999974
468.850477	1.000712
469.221790	1.000929
469.593043	1.000579
469.964238	1.001570
470.335373	1.000325
470.706449	1.000236
471.077467	1.001096
471.448425	1.000403
471.819324	1.001328
472.190164	1.000781
472.560945	1.000632
472.931667	1.000723
473.302330	0.999695
473.672934	1.000997
474.043479	1.000655
474.413965	1.000281
474.784393	1.000729
475.154761	1.000821
475.525070	1.000079
475.895321	1.001193
476.265513	1.000513
476.635645	1.000491
477.005719	1.001112
477.375734	1.000299
477.745691	1.000234
478.115588	1.000172
478.485427	1.000787
478.855207	1.000596
479.224928	1.000943
479.594591	1.000864
479.964194	1.000839
480.333739	1.001013
480.703226	1.000257
481.072653	1.001224
481.442022	1.000988
481.811333	0.999893
482.180584	1.001555
482.549777	1.000543
482.918912	1.001419
483.287988	1.001023
483.657005	1.000469
484.025964	1.000832
484.394864	1.000996
484.763706	1.000824
485.132489	1.001097
485.501213	1.000443
485.869879	1.000290
486.238487	1.001475
486.607036	1.001008
486.975527	1.000117
487.343959	1.000117
487.712333	1.000497
488.080648	1.000494
488.448905	1.000678
488.817104	1.000909
489.185244	1.001036
489.553326	1.001384
489.921350	1.000546
490.289315	1.001007
490.657222	1.000970
491.025070	1.000438
491.392861	1.000895
491.760593	1.000909
492.128267	1.000203
492.495883	1.001085
492.863440	1.001060
493.230939	1.001380
493.598380	1.000582
493.965763	1.000950
494.333088	1.000902
494.700354	1.000695
495.067563	1.001242
495.434713	1.000428
495.801805	1.001396
496.168839	1.001125
496.535815	0.999930
496.902733	1.000975
497.269593	1.000282
497.636395	1.000807
498.003139	1.001263
498.369825	1.001356
498.736453	1.000370
499.103023	0.999726
499.469535	0.999737
499.835989	1.000158
500.202385	1.001040
500.568723	1.000747
500.935003	1.000937
501.301226	1.000841
501.667390	0.999932
502.033497	1.000965
502.399546	1.000198
502.765537	1.000026
503.131470	1.000597
503.497345	1.000371
503.863163	1.001185
504.228923	1.000083
504.594625	1.000877
504.960269	1.000823
505.325856	1.001055
505.691385	1.000469
506.056856	1.000182
506.422270	1.000446
506.787625	1.001579
507.152924	1.000684
507.518164	1.000182
507.883347	1.000168
508.248472	1.000781
508.613540	1.000814
508.978550	1.000433
509.343503	1.000223
509.708398	1.001078
510.073236	1.000089
510.438016	1.001445
510.802738	1.000483
511.167403	1.000977
511.532010	1.000815
511.896561	1.000083
512.261053	1.001717
512.625488	1.000220
512.989866	1.000820
513.354186	1.000353
513.718449	1.000969
514.082655	1.000476
514.446803	1.000874
514.810894	1.001282
515.174927	1.000492
515.538904	1.000582
515.902822	1.000556
516.266684	1.001072
516.630488	1.000971
516.994235	1.000230
517.357925	1.000220
517.721558	1.001366
518.085133	1.000183
518.448651	1.001761
518.812112	1.000813
519.175516	1.000538
519.538863	1.000653
519.902152	1.000254
520.265385	0.999877
520.628560	1.000265
520.991678	1.000974
521.354739	1.000552
521.717743	1.000662
522.080690	1.000792
522.443580	1.000774
522.806413	1.000924
523.169189	1.000136
523.531908	1.000152
523.894569	1.000301
524.257174	1.000315
524.619722	1.000934
524.982213	1.001038
525.344647	1.001150
525.707025	0.999881
526.069345	1.000568
526.431608	1.000479
526.793815	1.001476
527.155964	1.000551
527.518057	1.000975
527.880093	1.000691
528.242072	1.000378
528.603995	0.999973
528.965860	1.000623
529.327669	1.000249
529.689421	1.000691
530.051117	1.001024
530.412755	1.000587
530.774337	1.001378
531.135862	1.000554
531.497331	1.000382
531.858743	1.000755
532.220098	1.000695
532.581396	1.000421
532.942638	1.001439
533.303824	1.000334
533.664953	1.000334
534.026025	1.000106
534.387040	1.000172
534.747999	1.000674
535.108902	1.000817
535.469748	1.000211
535.830537	1.000470
536.191270	1.000664
536.551947	1.000580
536.912567	0.999933
537.273131	1.001035
537.633638	1.000129
537.994089	1.001142
538.354483	1.000653
538.714821	1.000667
539.075103	1.000112
539.435328	1.001082
539.795497	1.000544
540.155609	1.000342
540.515665	1.000187
540.875665	1.000025
541.235609	1.000444
541.595496	1.000324
541.955328	0.999997
542.315102	1.000719
542.674821	1.000421
543.034483	0.999825
543.394090	0.999971
543.753640	1.001246
544.113134	0.999648
544.472571	1.000842
544.831953	1.000401
545.191278	1.000199
545.550548	1.001044
545.909761	0.999432
546.268918	1.000616
546.628019	1.000505
546.987064	0.999961
547.346053	1.000295
547.704986	0.999958
548.063863	1.000422
548.422684	1.000296
548.781449	1.000909
549.140158	0.999742
549.498811	1.000075
549.857408	1.000296
550.215949	1.001279
550.574434	1.000328
550.932864	0.999957
551.291237	1.000417
551.649555	1.000141
552.007817	1.000023
552.366022	0.999601
552.724173	1.000536
553.082267	1.000241
553.440305	0.999871
553.798288	1.000298
554.156215	1.000064
554.514086	1.000992
554.871902	1.000272
555.229661	1.000632
555.587365	1.000400
555.945014	1.001324
556.302606	0.999996
556.660143	0.999579
557.017625	1.000397
557.375050	0.999500
557.732421	0.999957
558.089735	1.000621
558.446994	1.000620
558.804197	1.001011
559.161345	1.000938
559.518437	1.001258
559.875474	0.999891
560.232455	1.000397
560.589381	1.000187
560.946251	0.999689
561.303065	1.000830
561.659825	1.000234
562.016528	1.000030
562.373177	1.000089
562.729770	1.000046
563.086307	1.000096
563.442789	1.000510
563.799216	0.999806
564.155587	1.000092
564.511904	0.999965
564.868164	0.999608
565.224370	1.000270
565.580520	1.000934
565.936615	1.000084
566.292654	1.000282
566.648638	1.000074
567.004567	0.999966
567.360441	1.001121
567.716260	1.000234
568.072023	1.000677
568.427732	1.001233
568.783385	1.000337
569.138982	0.999834
569.494525	1.000445
569.850013	1.000447
570.205445	1.000293
570.560823	0.999920
570.916145	1.000234
571.271412	0.999886
571.626625	1.000539
571.981782	0.999856
572.336884	1.000335
572.691931	0.999903
573.046923	0.999637
573.401860	1.000229
573.756743	0.999583
574.111570	1.000591
574.466342	1.000477
574.821059	1.000285
575.175722	1.000169
575.530330	1.000024
575.884882	0.999851
576.239380	1.000594
576.593823	1.001030
576.948211	1.000256
577.302544	1.000540
577.656823	1.000045
578.011047	1.000446
578.365216	1.000172
578.719330	1.000661
579.073389	1.001058
579.427394	1.000169
579.781344	1.000652
580.135239	1.000277
580.489080	1.000141
580.842866	1.000473
581.196597	1.000035
581.550273	0.999659
581.903895	1.000618
582.257463	0.999609
582.610975	1.000581
582.964434	1.000234
583.317837	1.000980
583.671186	0.999695
584.024481	1.000178
584.377721	1.000400
584.730906	1.000189
585.084037	1.000592
585.437113	0.999820
585.790135	1.000694
586.143103	1.000104
586.496016	1.000870
586.848874	1.000456
587.201679	0.999954
587.554428	0.999716
587.907124	0.999837
588.259765	1.000390
588.612352	1.000855
588.964884	1.000201
589.317362	1.001074
589.669786	1.000351
590.022155	1.000466
590.374470	0.999746
590.726731	1.000113
591.078937	0.999314
591.431090	0.999654
591.783188	1.000222
592.135232	1.000889
592.487222	1.000768
592.839157	0.999996
593.191038	1.000894
593.542866	1.000442
593.894639	1.000983
594.246358	1.000133
594.598022	0.999452
594.949633	1.000652
595.301190	0.999561
595.652692	1.000035
596.004141	1.000850
596.355535	0.999668
596.706876	1.000219
597.058162	1.000712
597.409395	1.000403
597.760573	1.000136
598.111698	0.999926
598.462768	0.999638
598.813785	1.000013
599.164748	1.000276
599.515657	1.000276
599.866511	0.999624
600.217312	0.999938
600.568060	1.000319
600.918753	1.000048
601.269392	1.000140
601.619978	1.000556
601.970510	1.000130
602.320988	1.000322
602.671412	0.999687
603.021783	1.000221
603.372100	1.000763
603.722363	1.000920
604.072572	1.000102
604.422728	0.999830
604.772830	0.999421
605.122878	0.999972
605.472872	1.000820
605.822813	0.999584
606.172701	0.999891
606.522534	1.001261
606.872314	0.999827
607.222041	0.999997
607.571714	1.000662
607.921333	0.999734
608.270899	0.999283
608.620411	0.999912
608.969870	1.000522
609.319276	0.999502
609.668627	1.000147
610.017926	0.999049
610.367171	1.000206
610.716362	0.999688
611.065500	0.999624
611.414585	0.999890
611.763616	1.000126
612.112594	0.999823
612.461518	0.999719
612.810389	0.999516
613.159207	0.999765
613.507971	1.000037
613.856682	0.999968
614.205340	0.999967
614.553945	0.999760
614.902496	1.000198
615.250994	0.999221
615.599439	1.000107
615.947830	0.999565
616.296169	0.999967
616.644454	0.999774
616.992686	1.000239
617.340864	1.000052
617.688990	1.000075
618.037063	1.000277
618.385082	1.000099
618.733048	0.999795
619.080961	1.000430
619.428821	1.000377
619.776628	0.999121
620.124382	0.999376
620.472083	0.998707
620.819731	1.000283
621.167326	1.000189
621.514868	1.000018
621.862357	0.999880
622.209793	1.000186
622.557176	0.998761
622.904506	1.000531
623.251783	0.998571
623.599007	0.999849
623.946179	0.999222
624.293297	0.999825
624.640363	0.999922
624.987376	0.998716
625.334336	1.000209
625.681243	1.000304
626.028097	1.000376
626.374899	1.000435
626.721647	1.000684
627.068343	1.000133
627.414987	0.999806
627.761577	1.000059
628.108115	0.999732
628.454600	0.999937
628.801032	0.999777
629.147412	0.999315
629.493739	0.998814
629.840014	0.999959
630.186236	0.999925
630.532405	0.999628
630.878521	0.999971
631.224585	1.000334
631.570597	0.999731
631.916556	1.000505
632.262462	0.999754
632.608316	0.999659
632.954117	0.999147
633.299866	0.999576
633.645562	0.999847
633.991206	0.999319
634.336797	0.999572
634.682336	0.999027
635.027823	1.000083
635.373257	1.000115
635.718639	0.999809
636.063968	0.999362
636.409245	0.998753
636.754470	0.999384
637.099642	1.000253
637.444762	1.000480
637.789829	0.999838
638.134845	0.999598
638.479808	0.999013
638.824719	0.999623
639.169577	0.999253
639.514383	0.999596
639.859137	0.999664
640.203839	0.999831
640.548489	0.998688
640.893086	0.999593
641.237632	1.000091
641.582125	0.998722
641.926566	0.999121
642.270955	0.999524
642.615292	0.999310
642.959576	0.999646
643.303809	0.999217
643.647990	0.998828
643.992118	0.999726
644.336195	1.000217
644.680219	1.000281
645.024192	0.999125
645.368112	0.998890
645.711981	0.998749
646.055797	0.999761
646.399562	0.999137
646.743274	0.998570
647.086935	0.999364
647.430544	0.998604
647.774101	1.000097
648.117606	0.999167
648.461059	0.997920
648.804460	0.998381
649.147810	0.998927
649.491108	0.999710
649.834354	0.998454
650.177548	1.000027
650.520690	0.998806
650.863781	0.998713
651.206820	0.999754
651.549807	0.999212
651.892742	0.998910
652.235626	0.999380
652.578458	0.999233
652.921238	0.999185
653.263967	1.000192
653.606644	0.999098
653.949269	0.998826
654.291843	0.998604
654.634365	0.998704
654.976836	0.999105
655.319255	0.999203
655.661622	0.999490
656.003938	0.998981
656.346203	0.999603
656.688416	0.999688
657.030577	0.999210
657.372687	0.997963
657.714746	0.998389
658.056753	0.998491
658.398708	0.999516
658.740612	0.998728
659.082465	0.998912
659.424266	0.999339
659.766016	0.997468
660.107715	0.998041
660.449362	0.998110
660.790958	0.998726
661.132503	0.997955
661.473996	0.998881
661.815438	0.998339
662.156829	0.997760
662.498168	0.998698
662.839456	0.998380
663.180693	0.998878
663.521879	0.998850
663.863013	0.999046
664.204097	0.999159
664.545129	0.998253
664.886110	0.998529
665.227040	0.997739
665.567918	0.997738
665.908746	0.998256
666.249522	0.997406
666.590248	0.997291
666.930922	0.997989
667.271545	0.997320
667.612118	0.997151
667.952639	0.997591
668.293109	0.998422
668.633528	0.996922
668.973896	0.997752
669.314213	0.997728
669.654480	0.997418
669.994695	0.996961
670.334859	0.997007
670.674973	0.996930
671.015035	0.997659
671.355047	0.997025
671.695008	0.997598
672.034918	0.997628
672.374777	0.997172
672.714585	0.996510
673.054342	0.997807
673.394049	0.996918
673.733705	0.995335
674.073310	0.995998
674.412864	0.996380
674.752368	0.996283
675.091820	0.997791
675.431223	0.996368
675.770574	0.996047
676.109875	0.996059
676.449125	0.995808
676.788324	0.995695
677.127473	0.996500
677.466571	0.995909
677.805619	0.995772
678.144616	0.995522
678.483562	0.995163
678.822458	0.995148
679.161303	0.996506
679.500098	0.995007
679.838842	0.995875
680.177535	0.995421
680.516179	0.995362
680.854771	0.995499
681.193314	0.994507
681.531805	0.995398
681.870247	0.993637
682.208638	0.993941
682.546978	0.992886
682.885268	0.993655
683.223508	0.993399
683.561697	0.992105
683.899836	0.994019
684.237925	0.993665
684.575963	0.993264
684.913951	0.993569
685.251889	0.992934
685.589776	0.992743
685.927614	0.991847
686.265401	0.991884
686.603137	0.992574
686.940824	0.991433
687.278460	0.991954
687.616046	0.990936
687.953582	0.990509
688.291068	0.990455
688.628504	0.990850
