Dividing Wavelength (nm)	Counts (n)	Blue Motor Position (mm): 0.000000	Red Motor Position (mm): 47.600000	
326.493990	1.000454
326.888308	1.000454
327.282561	1.000454
327.676750	1.000515
328.070874	0.998775
328.464933	0.999303
328.858929	0.998368
329.252859	0.999729
329.646726	0.999312
330.040528	0.999461
330.434265	0.998501
330.827938	1.000549
331.221547	1.000810
331.615091	0.999416
332.008571	0.999217
332.401986	0.999535
332.795338	1.000446
333.188625	0.997462
333.581847	1.000054
333.975006	1.000699
334.368100	0.999388
334.761129	0.999840
335.154095	1.000295
335.546996	0.999055
335.939833	0.998063
336.332606	0.998726
336.725315	1.001120
337.117960	1.001798
337.510540	0.999805
337.903056	1.000272
338.295508	0.999076
338.687896	1.000346
339.080220	1.000071
339.472480	0.999587
339.864676	0.999413
340.256807	0.999884
340.648875	1.000387
341.040879	0.999347
341.432818	1.000191
341.824694	0.999377
342.216506	1.000471
342.608253	1.000536
342.999937	1.000034
343.391557	0.999792
343.783113	1.000238
344.174605	1.000311
344.566033	1.000177
344.957397	0.998891
345.348697	1.000165
345.739934	0.999326
346.131106	1.000428
346.522215	0.999078
346.913260	0.999360
347.304241	1.000099
347.695159	0.999007
348.086012	0.998817
348.476802	0.999642
348.867528	1.000518
349.258191	0.997869
349.648789	1.000417
350.039324	1.000120
350.429796	1.000621
350.820203	1.000758
351.210548	0.999934
351.600828	1.000360
351.991045	0.999874
352.381198	0.999043
352.771288	1.000089
353.161314	0.999225
353.551276	1.001354
353.941175	1.000300
354.331010	0.999400
354.720782	1.001181
355.110490	1.000018
355.500135	1.001140
355.889717	0.999801
356.279235	0.999866
356.668689	0.999232
357.058080	0.999803
357.447408	1.001467
357.836672	1.000565
358.225873	1.000095
358.615010	0.999861
359.004084	1.001152
359.393095	1.000087
359.782043	0.999786
360.170927	1.000741
360.559748	1.000868
360.948505	0.998515
361.337199	0.999194
361.725830	1.000267
362.114398	0.999088
362.502903	1.000269
362.891344	0.999643
363.279722	1.000337
363.668037	1.000242
364.056289	0.999968
364.444478	1.000440
364.832603	1.000723
365.220665	0.999136
365.608665	0.999396
365.996601	0.999753
366.384474	0.998895
366.772284	1.000986
367.160031	0.998611
367.547715	0.999487
367.935336	0.999628
368.322893	1.000314
368.710388	0.999365
369.097820	1.000160
369.485189	1.000992
369.872495	0.998452
370.259738	0.997683
370.646918	1.001094
371.034035	1.000453
371.421090	0.999232
371.808081	1.000341
372.195010	0.999720
372.581875	1.000400
372.968678	0.999558
373.355418	0.999139
373.742096	0.999674
374.128710	1.000957
374.515262	1.000761
374.901751	1.000955
375.288177	0.999731
375.674540	0.999857
376.060841	0.998662
376.447079	0.999684
376.833254	0.999782
377.219367	1.000070
377.605417	1.000072
377.991404	1.001306
378.377329	0.999880
378.763191	0.999735
379.148991	1.000539
379.534727	1.000195
379.920402	0.999929
380.306013	1.000683
380.691563	1.000955
381.077049	0.999857
381.462474	1.000263
381.847835	1.000777
382.233134	0.999913
382.618371	1.000674
383.003545	1.000576
383.388657	0.999762
383.773706	1.001529
384.158693	0.999787
384.543618	1.000619
384.928480	1.001176
385.313280	1.000111
385.698017	1.000442
386.082692	1.001185
386.467305	1.000678
386.851856	1.000234
387.236344	1.000979
387.620770	0.999003
388.005133	1.000833
388.389435	1.001467
388.773674	1.000885
389.157851	1.000589
389.541965	1.000482
389.926018	1.000937
390.310008	1.000944
390.693936	0.999971
391.077802	1.001222
391.461606	1.000291
391.845348	1.000229
392.229027	1.001239
392.612645	1.001497
392.996200	1.001846
393.379694	1.001052
393.763125	1.001792
394.146494	1.000836
394.529801	1.000851
394.913047	1.000780
395.296230	1.000422
395.679351	1.001020
396.062410	1.000143
396.445408	1.000949
396.828343	1.000014
397.211217	1.000606
397.594028	1.000731
397.976778	1.000572
398.359466	1.000343
398.742092	1.000399
399.124656	1.000364
399.507158	1.000532
399.889598	1.000364
400.271977	1.001152
400.654294	1.001401
401.036549	1.001719
401.418742	1.000821
401.800874	1.000887
402.182944	1.001245
402.564952	1.000155
402.946898	1.001453
403.328783	1.000657
403.710606	1.000935
404.092367	1.000927
404.474067	1.000834
404.855705	1.000683
405.237282	1.001181
405.618797	1.000886
406.000250	1.000448
406.381642	1.000639
406.762972	1.001011
407.144240	1.001692
407.525447	1.001167
407.906593	1.000965
408.287677	1.001233
408.668700	1.001728
409.049661	1.000230
409.430560	1.001183
409.811399	1.000665
410.192176	1.000551
410.572891	1.000980
410.953545	1.000750
411.334138	1.000586
411.714669	1.000690
412.095139	1.000240
412.475547	1.000765
412.855894	1.001051
413.236180	1.001655
413.616405	1.001291
413.996568	1.001507
414.376670	1.000634
414.756711	1.000608
415.136691	1.000442
415.516609	1.000912
415.896466	1.000732
416.276262	1.000288
416.655997	1.001145
417.035670	1.000225
417.415283	1.001267
417.794834	1.001259
418.174324	1.000514
418.553753	1.001474
418.933121	1.000377
419.312428	1.001095
419.691674	1.001034
420.070859	1.001035
420.449983	1.000664
420.829045	1.000441
421.208047	1.001418
421.586988	1.001866
421.965867	1.001373
422.344686	1.001678
422.723444	1.001514
423.102141	1.001488
423.480777	1.001276
423.859352	1.001036
424.237866	1.000818
424.616319	1.000947
424.994712	1.000691
425.373044	1.001482
425.751314	1.001583
426.129524	1.000643
426.507673	1.001652
426.885762	1.001991
427.263789	1.000757
427.641756	1.001621
428.019662	1.001659
428.397508	0.999990
428.775292	0.999731
429.153016	1.000305
429.530679	1.001352
429.908282	1.001558
430.285824	0.999721
430.663305	1.000686
431.040726	1.001373
431.418086	1.001906
431.795385	1.001391
432.172624	1.000292
432.549802	1.001316
432.926920	1.002302
433.303977	1.000269
433.680974	1.001000
434.057910	1.001227
434.434786	1.001516
434.811601	1.001002
435.188355	1.000131
435.565050	1.000614
435.941683	1.001715
436.318257	1.001584
436.694770	1.000796
437.071222	1.002075
437.447614	1.001960
437.823946	1.001357
438.200218	1.001125
438.576429	1.000683
438.952580	1.001351
439.328670	1.000806
439.704700	1.001455
440.080670	1.000631
440.456580	1.001409
440.832429	1.000370
441.208218	1.002030
441.583947	1.000670
441.959616	1.000972
442.335224	1.001501
442.710773	1.002527
443.086261	1.000502
443.461689	1.000829
443.837057	1.001657
444.212365	1.000891
444.587612	1.001036
444.962800	1.000978
445.337927	1.001381
445.712995	1.001625
446.088002	1.001540
446.462949	1.000712
446.837837	1.001011
447.212664	1.001624
447.587431	1.001399
447.962139	1.000522
448.336786	1.000349
448.711374	1.001322
449.085901	1.001021
449.460369	1.001219
449.834776	1.000958
450.209124	1.001614
450.583412	1.000876
450.957640	1.001264
451.331808	1.000626
451.705917	1.001346
452.079965	1.000341
452.453954	1.001240
452.827883	1.001028
453.201752	1.000785
453.575562	1.001617
453.949311	1.001543
454.323001	1.001468
454.696632	1.000580
455.070202	1.001175
455.443713	1.000400
455.817164	1.001488
456.190556	1.000570
456.563888	1.000791
456.937160	1.001142
457.310373	1.000708
457.683526	1.000790
458.056619	1.000536
458.429653	1.001274
458.802628	1.001140
459.175542	1.000539
459.548398	1.001030
459.921194	1.000601
460.293930	1.000867
460.666607	1.000570
461.039224	0.999648
461.411782	1.000745
461.784280	1.000763
462.156719	1.001370
462.529099	1.001118
462.901419	1.001851
463.273680	1.000690
463.645882	1.001082
464.018024	1.001398
464.390106	1.001399
464.762130	1.001143
465.134094	1.001244
465.505999	1.000854
465.877845	1.000788
466.249631	1.001122
466.621358	1.001270
466.993026	1.001185
467.364634	1.001135
467.736184	1.001864
468.107674	1.001010
468.479105	1.000789
468.850477	1.001831
469.221790	1.002006
469.593043	1.001468
469.964238	1.002077
470.335373	1.001101
470.706449	1.001455
471.077467	1.001243
471.448425	1.001272
471.819324	1.001592
472.190164	1.001168
472.560945	1.001172
472.931667	1.001298
473.302330	1.000473
473.672934	1.001540
474.043479	1.001286
474.413965	1.000985
474.784393	1.001696
475.154761	1.001410
475.525070	1.000724
475.895321	1.001783
476.265513	1.001303
476.635645	1.001337
477.005719	1.001253
477.375734	1.001067
477.745691	1.001542
478.115588	1.001610
478.485427	1.000953
478.855207	1.001212
479.224928	1.001482
479.594591	1.001587
479.964194	1.001513
480.333739	1.001870
480.703226	1.001331
481.072653	1.002002
481.442022	1.001655
481.811333	1.000631
482.180584	1.001962
482.549777	1.001343
482.918912	1.001662
483.287988	1.001965
483.657005	1.001038
484.025964	1.002044
484.394864	1.001943
484.763706	1.002093
485.132489	1.001984
485.501213	1.002122
485.869879	1.000806
486.238487	1.001768
486.607036	1.001497
486.975527	1.001516
487.343959	1.001668
487.712333	1.001364
488.080648	1.001376
488.448905	1.001422
488.817104	1.002360
489.185244	1.001391
489.553326	1.001542
489.921350	1.001759
490.289315	1.001902
490.657222	1.001937
491.025070	1.001403
491.392861	1.002237
491.760593	1.001615
492.128267	1.001422
492.495883	1.001882
492.863440	1.002045
493.230939	1.001771
493.598380	1.001683
493.965763	1.001465
494.333088	1.001993
494.700354	1.001474
495.067563	1.001381
495.434713	1.001191
495.801805	1.002535
496.168839	1.001536
496.535815	1.001098
496.902733	1.001090
497.269593	1.001261
497.636395	1.001110
498.003139	1.001229
498.369825	1.002033
498.736453	1.001665
499.103023	1.001306
499.469535	1.001089
499.835989	1.001390
500.202385	1.002214
500.568723	1.001663
500.935003	1.002058
501.301226	1.001753
501.667390	1.001682
502.033497	1.001348
502.399546	1.002104
502.765537	1.001200
503.131470	1.001581
503.497345	1.001064
503.863163	1.002424
504.228923	1.001430
504.594625	1.001945
504.960269	1.001873
505.325856	1.001804
505.691385	1.000745
506.056856	1.000986
506.422270	1.001556
506.787625	1.001573
507.152924	1.001267
507.518164	1.001360
507.883347	1.001237
508.248472	1.001179
508.613540	1.001209
508.978550	1.001979
509.343503	1.001333
509.708398	1.002050
510.073236	1.002093
510.438016	1.001895
510.802738	1.001683
511.167403	1.001801
511.532010	1.001636
511.896561	1.001433
512.261053	1.002362
512.625488	1.001295
512.989866	1.001571
513.354186	1.001961
513.718449	1.001758
514.082655	1.001004
514.446803	1.001977
514.810894	1.001760
515.174927	1.001300
515.538904	1.000965
515.902822	1.001728
516.266684	1.001222
516.630488	1.002250
516.994235	1.001269
517.357925	1.001630
517.721558	1.002309
518.085133	1.000727
518.448651	1.002151
518.812112	1.001737
519.175516	1.000930
519.538863	1.001741
519.902152	1.001683
520.265385	1.001472
520.628560	1.001516
520.991678	1.001414
521.354739	1.002127
521.717743	1.001977
522.080690	1.001906
522.443580	1.001645
522.806413	1.001418
523.169189	1.001312
523.531908	1.000854
523.894569	1.001855
524.257174	1.002224
524.619722	1.001913
524.982213	1.001400
525.344647	1.001779
525.707025	1.001170
526.069345	1.000569
526.431608	1.001455
526.793815	1.001719
527.155964	1.001299
527.518057	1.002246
527.880093	1.002550
528.242072	1.001581
528.603995	1.001143
528.965860	1.001817
529.327669	1.002171
529.689421	1.001204
530.051117	1.002133
530.412755	1.001115
530.774337	1.002300
531.135862	1.001616
531.497331	1.001420
531.858743	1.001769
532.220098	1.001674
532.581396	1.001672
532.942638	1.001692
533.303824	1.001896
533.664953	1.001634
534.026025	1.001672
534.387040	1.001737
534.747999	1.001429
535.108902	1.001771
535.469748	1.001278
535.830537	1.001646
536.191270	1.001837
536.551947	1.001550
536.912567	1.001428
537.273131	1.002305
537.633638	1.000982
537.994089	1.001379
538.354483	1.001194
538.714821	1.001083
539.075103	1.001085
539.435328	1.001695
539.795497	1.001765
540.155609	1.001521
540.515665	1.001435
540.875665	1.001139
541.235609	1.001257
541.595496	1.001136
541.955328	1.000069
542.315102	1.001410
542.674821	1.001507
543.034483	1.001214
543.394090	1.000677
543.753640	1.001274
544.113134	1.002026
544.472571	1.001627
544.831953	1.001902
545.191278	1.001191
545.550548	1.001669
545.909761	1.001275
546.268918	1.001357
546.628019	1.001669
546.987064	1.001281
547.346053	1.001458
547.704986	1.001973
548.063863	1.001540
548.422684	1.001142
548.781449	1.002253
549.140158	1.000799
549.498811	1.002483
549.857408	1.001188
550.215949	1.001777
550.574434	1.001675
550.932864	1.001398
551.291237	1.002181
551.649555	1.001090
552.007817	1.001446
552.366022	1.000958
552.724173	1.001729
553.082267	1.001216
553.440305	1.000681
553.798288	1.001315
554.156215	1.001361
554.514086	1.001769
554.871902	1.001397
555.229661	1.001428
555.587365	1.000852
555.945014	1.001692
556.302606	1.001549
556.660143	1.001480
557.017625	1.001141
557.375050	1.000866
557.732421	1.001548
558.089735	1.001525
558.446994	1.002060
558.804197	1.001738
559.161345	1.001908
559.518437	1.002105
559.875474	1.001018
560.232455	1.001740
560.589381	1.002252
560.946251	1.001151
561.303065	1.002133
561.659825	1.001419
562.016528	1.001206
562.373177	1.001432
562.729770	1.001244
563.086307	1.001475
563.442789	1.001180
563.799216	1.001772
564.155587	1.001214
564.511904	1.000910
564.868164	1.001422
565.224370	1.001151
565.580520	1.001776
565.936615	1.001326
566.292654	1.001412
566.648638	1.001442
567.004567	1.001047
567.360441	1.001550
567.716260	1.001569
568.072023	1.001733
568.427732	1.001064
568.783385	1.001714
569.138982	1.001304
569.494525	1.001222
569.850013	1.001487
570.205445	1.001488
570.560823	1.001340
570.916145	1.001509
571.271412	1.001139
571.626625	1.000715
571.981782	1.001235
572.336884	1.001810
572.691931	1.001547
573.046923	1.000567
573.401860	1.001573
573.756743	1.000702
574.111570	1.001944
574.466342	1.001640
574.821059	1.001180
575.175722	1.001119
575.530330	1.001214
575.884882	1.001656
576.239380	1.002327
576.593823	1.001292
576.948211	1.000474
577.302544	1.000945
577.656823	1.001289
578.011047	1.001492
578.365216	1.001262
578.719330	1.000677
579.073389	1.001771
579.427394	1.001079
579.781344	1.001150
580.135239	1.001019
580.489080	1.000869
580.842866	1.001513
581.196597	1.000520
581.550273	1.000899
581.903895	1.001207
582.257463	1.001059
582.610975	1.001244
582.964434	1.001739
583.317837	1.001986
583.671186	1.001066
584.024481	1.000860
584.377721	1.000605
584.730906	1.001192
585.084037	1.001273
585.437113	1.000809
585.790135	1.000875
586.143103	1.000744
586.496016	1.002018
586.848874	1.000974
587.201679	1.000416
587.554428	1.000847
587.907124	1.000834
588.259765	1.000979
588.612352	1.001595
588.964884	1.001437
589.317362	1.001361
589.669786	1.001306
590.022155	1.001298
590.374470	1.001275
590.726731	1.000281
591.078937	0.999752
591.431090	1.000597
591.783188	1.000389
592.135232	1.001693
592.487222	1.001099
592.839157	1.000750
593.191038	1.000945
593.542866	1.000957
593.894639	1.001114
594.246358	0.999662
594.598022	1.001188
594.949633	1.000383
595.301190	1.000832
595.652692	1.001120
596.004141	1.001645
596.355535	1.000928
596.706876	1.000897
597.058162	1.000774
597.409395	1.000698
597.760573	1.000405
598.111698	1.001050
598.462768	0.999979
598.813785	1.000161
599.164748	1.000563
599.515657	1.000735
599.866511	1.000740
600.217312	1.000573
600.568060	1.000790
600.918753	1.000675
601.269392	1.000859
601.619978	1.001365
601.970510	1.001064
602.320988	1.001237
602.671412	1.000472
603.021783	1.001475
603.372100	1.001334
603.722363	1.002224
604.072572	1.000517
604.422728	1.000777
604.772830	1.000385
605.122878	1.000970
605.472872	1.000700
605.822813	1.000101
606.172701	1.000926
606.522534	1.001570
606.872314	1.001026
607.222041	1.000840
607.571714	1.001876
607.921333	0.999893
608.270899	1.000874
608.620411	1.001345
608.969870	1.001361
609.319276	1.000327
609.668627	1.001443
610.017926	0.999856
610.367171	1.000870
610.716362	0.999672
611.065500	1.000022
611.414585	1.001205
611.763616	1.000329
612.112594	0.999896
612.461518	1.000826
612.810389	1.000065
613.159207	1.000875
613.507971	1.000213
613.856682	1.000714
614.205340	1.001687
614.553945	1.000227
614.902496	1.000874
615.250994	1.000604
615.599439	1.001198
615.947830	0.999987
616.296169	0.999635
616.644454	1.000443
616.992686	1.001025
617.340864	1.000060
617.688990	1.000938
618.037063	1.000405
618.385082	1.000502
618.733048	1.000501
619.080961	1.001114
619.428821	1.001071
619.776628	1.000699
620.124382	1.000113
620.472083	0.999762
620.819731	1.000412
621.167326	0.999739
621.514868	1.000219
621.862357	1.000810
622.209793	1.000988
622.557176	0.999446
622.904506	1.000454
623.251783	1.000139
623.599007	1.000962
623.946179	1.000778
624.293297	1.000348
624.640363	1.001491
624.987376	1.000120
625.334336	1.000726
625.681243	1.000845
626.028097	1.001125
626.374899	1.000625
626.721647	1.000920
627.068343	1.001354
627.414987	1.000291
627.761577	0.999949
628.108115	1.000739
628.454600	1.001086
628.801032	1.000702
629.147412	1.000646
629.493739	1.000452
629.840014	1.000045
630.186236	1.001086
630.532405	1.000761
630.878521	1.000498
631.224585	1.000480
631.570597	1.000803
631.916556	1.000425
632.262462	1.000529
632.608316	1.001070
632.954117	1.000079
633.299866	1.000373
633.645562	1.000800
633.991206	1.000775
634.336797	1.001145
634.682336	1.000245
635.027823	1.000134
635.373257	1.000225
635.718639	1.000708
636.063968	1.000262
636.409245	1.000571
636.754470	1.000355
637.099642	1.001075
637.444762	1.000020
637.789829	0.999698
638.134845	1.000431
638.479808	1.000443
638.824719	1.000589
639.169577	1.000100
639.514383	1.000043
639.859137	1.000180
640.203839	1.000297
640.548489	0.999458
640.893086	1.000417
641.237632	1.001358
641.582125	0.999683
641.926566	0.999929
642.270955	1.000522
642.615292	1.000429
642.959576	1.000090
643.303809	1.001185
643.647990	0.999583
643.992118	1.000743
644.336195	1.000787
644.680219	1.000462
645.024192	1.000716
645.368112	0.999832
645.711981	1.000903
646.055797	1.000261
646.399562	1.000020
646.743274	0.999375
647.086935	1.000518
647.430544	0.999541
647.774101	1.000559
648.117606	1.000027
648.461059	1.000491
648.804460	1.000351
649.147810	0.999961
649.491108	1.000493
649.834354	0.999796
650.177548	1.000030
650.520690	1.000671
650.863781	1.000304
651.206820	1.000756
651.549807	1.001322
651.892742	1.000115
652.235626	1.000352
652.578458	1.001359
652.921238	1.000541
653.263967	1.001282
653.606644	1.000769
653.949269	1.000491
654.291843	1.000698
654.634365	0.999307
654.976836	1.000109
655.319255	1.000510
655.661622	1.000479
656.003938	0.999436
656.346203	1.001114
656.688416	1.000843
657.030577	1.001571
657.372687	0.999686
657.714746	1.000284
658.056753	1.000269
658.398708	1.000631
658.740612	1.000402
659.082465	1.000351
659.424266	1.000880
659.766016	0.999503
660.107715	0.999506
660.449362	0.999714
660.790958	1.000346
661.132503	0.999556
661.473996	1.000006
661.815438	1.000335
662.156829	0.999514
662.498168	1.000256
662.839456	0.999702
663.180693	1.000182
663.521879	0.999324
663.863013	1.000775
664.204097	1.000881
664.545129	1.001293
664.886110	1.000602
665.227040	1.000345
665.567918	0.999551
665.908746	1.000692
666.249522	0.999800
666.590248	0.999404
666.930922	1.000509
667.271545	0.999978
667.612118	1.000234
667.952639	1.000066
668.293109	1.000501
668.633528	1.001135
668.973896	1.000034
669.314213	1.000051
669.654480	1.000853
669.994695	1.000587
670.334859	1.000305
670.674973	1.000065
671.015035	1.001132
671.355047	0.999825
671.695008	1.000605
672.034918	0.999648
672.374777	1.000512
672.714585	1.000622
673.054342	1.000466
673.394049	0.999953
673.733705	0.998656
674.073310	1.000314
674.412864	1.000360
674.752368	1.000273
675.091820	1.000036
675.431223	1.000498
675.770574	1.000435
676.109875	0.999955
676.449125	1.000661
676.788324	1.000136
677.127473	1.001178
677.466571	1.000036
677.805619	1.000441
678.144616	1.000590
678.483562	0.999569
678.822458	1.000209
679.161303	1.001671
679.500098	1.000030
679.838842	1.000934
680.177535	1.000557
680.516179	1.000182
680.854771	1.000213
681.193314	1.000599
681.531805	1.000145
681.870247	0.999425
682.208638	0.999316
682.546978	0.999527
682.885268	0.999981
683.223508	0.999774
683.561697	0.999205
683.899836	1.000351
684.237925	1.000772
684.575963	1.000366
684.913951	0.999834
685.251889	1.000800
685.589776	1.000110
685.927614	1.000727
686.265401	1.000088
686.603137	0.999836
686.940824	1.000553
687.278460	0.999846
687.616046	1.000427
687.953582	0.999471
688.291068	0.999690
688.628504	1.000204
