Dividing Wavelength (nm)	Counts (n)	Blue Motor Position (mm): 0.000000	Red Motor Position (mm): 48.400000	
326.493990	1.000505
326.888308	1.000505
327.282561	1.000505
327.676750	0.999935
328.070874	1.000165
328.464933	0.999954
328.858929	0.999507
329.252859	0.999531
329.646726	0.999042
330.040528	0.999993
330.434265	0.998470
330.827938	1.001395
331.221547	1.001045
331.615091	0.999497
332.008571	1.000668
332.401986	1.000620
332.795338	1.000974
333.188625	0.999097
333.581847	1.000154
333.975006	0.999554
334.368100	0.999305
334.761129	0.999939
335.154095	1.000639
335.546996	1.001505
335.939833	0.999701
336.332606	0.999516
336.725315	1.001479
337.117960	1.002196
337.510540	1.000441
337.903056	1.000189
338.295508	0.999874
338.687896	1.000756
339.080220	1.001647
339.472480	1.000670
339.864676	1.000554
340.256807	1.000206
340.648875	1.000867
341.040879	1.000705
341.432818	0.999983
341.824694	1.000219
342.216506	1.000098
342.608253	0.999658
342.999937	0.999340
343.391557	1.000503
343.783113	1.000115
344.174605	0.999766
344.566033	0.999761
344.957397	0.999575
345.348697	1.000477
345.739934	0.999675
346.131106	1.000118
346.522215	0.999334
346.913260	0.999241
347.304241	0.999619
347.695159	0.999699
348.086012	0.998865
348.476802	1.000508
348.867528	0.999517
349.258191	0.999335
349.648789	1.000942
350.039324	0.999814
350.429796	1.000664
350.820203	1.000841
351.210548	1.000153
351.600828	1.000817
351.991045	1.000214
352.381198	0.997697
352.771288	0.999992
353.161314	0.998669
353.551276	1.001805
353.941175	1.000996
354.331010	1.000228
354.720782	1.000715
355.110490	1.000196
355.500135	1.000065
355.889717	0.999929
356.279235	0.998778
356.668689	0.999964
357.058080	1.001413
357.447408	1.002167
357.836672	1.000941
358.225873	1.000719
358.615010	1.000702
359.004084	1.000512
359.393095	1.000219
359.782043	0.999777
360.170927	1.000761
360.559748	1.001211
360.948505	0.999070
361.337199	0.999591
361.725830	1.000786
362.114398	1.001069
362.502903	1.000144
362.891344	1.001177
363.279722	1.000106
363.668037	1.001129
364.056289	1.001116
364.444478	1.000609
364.832603	1.001201
365.220665	1.000406
365.608665	0.999911
365.996601	1.000158
366.384474	1.000679
366.772284	1.000374
367.160031	0.998451
367.547715	0.998684
367.935336	1.000357
368.322893	0.999756
368.710388	0.999541
369.097820	1.000150
369.485189	1.000071
369.872495	1.000013
370.259738	0.998053
370.646918	1.000623
371.034035	1.000708
371.421090	1.000069
371.808081	1.000094
372.195010	1.000735
372.581875	1.000901
372.968678	0.999541
373.355418	0.999758
373.742096	1.000544
374.128710	1.000524
374.515262	0.999752
374.901751	1.001739
375.288177	1.000666
375.674540	0.999760
376.060841	0.998735
376.447079	0.999637
376.833254	1.000359
377.219367	0.999450
377.605417	1.001415
377.991404	1.001054
378.377329	1.000022
378.763191	1.000561
379.148991	1.001571
379.534727	1.001047
379.920402	1.000218
380.306013	1.000860
380.691563	1.000042
381.077049	0.999945
381.462474	1.000429
381.847835	1.000973
382.233134	0.999927
382.618371	1.000937
383.003545	1.000541
383.388657	0.999198
383.773706	1.001024
384.158693	1.001297
384.543618	0.999913
384.928480	1.000396
385.313280	0.999938
385.698017	1.000585
386.082692	1.000299
386.467305	1.000034
386.851856	1.000479
387.236344	0.999813
387.620770	0.999172
388.005133	1.000314
388.389435	1.001049
388.773674	0.999826
389.157851	0.999916
389.541965	1.000205
389.926018	0.999712
390.310008	1.000661
390.693936	1.000085
391.077802	1.000443
391.461606	1.000073
391.845348	0.999820
392.229027	1.002091
392.612645	1.000779
392.996200	1.002245
393.379694	0.999590
393.763125	1.000914
394.146494	1.001164
394.529801	0.999144
394.913047	0.999905
395.296230	1.000795
395.679351	0.999934
396.062410	0.999928
396.445408	1.000314
396.828343	0.999844
397.211217	0.999960
397.594028	1.000546
397.976778	1.000814
398.359466	1.000687
398.742092	0.999963
399.124656	0.999932
399.507158	1.000110
399.889598	1.000688
400.271977	1.000826
400.654294	1.000964
401.036549	1.001265
401.418742	1.000876
401.800874	0.999939
402.182944	1.000179
402.564952	0.999715
402.946898	1.001450
403.328783	0.999876
403.710606	0.999798
404.092367	1.000095
404.474067	0.998908
404.855705	0.999956
405.237282	1.000198
405.618797	0.999643
406.000250	0.999571
406.381642	1.000567
406.762972	1.000377
407.144240	1.000814
407.525447	1.000678
407.906593	1.000812
408.287677	1.000181
408.668700	1.001242
409.049661	1.000108
409.430560	1.000446
409.811399	0.999826
410.192176	0.999687
410.572891	1.000021
410.953545	1.000023
411.334138	0.999766
411.714669	1.000238
412.095139	1.000203
412.475547	1.000413
412.855894	1.000339
413.236180	1.001189
413.616405	1.000795
413.996568	1.001078
414.376670	0.999628
414.756711	1.000278
415.136691	1.000042
415.516609	0.999380
415.896466	0.999369
416.276262	0.999505
416.655997	1.000594
417.035670	0.999041
417.415283	1.000073
417.794834	1.000648
418.174324	0.999823
418.553753	1.000731
418.933121	1.000597
419.312428	0.999908
419.691674	0.999751
420.070859	1.000695
420.449983	1.000477
420.829045	1.000325
421.208047	1.001143
421.586988	1.001194
421.965867	0.999999
422.344686	1.001566
422.723444	1.000613
423.102141	0.999812
423.480777	1.000494
423.859352	1.000881
424.237866	0.999994
424.616319	1.000018
424.994712	1.000577
425.373044	1.000332
425.751314	1.000359
426.129524	1.000080
426.507673	1.000521
426.885762	1.000787
427.263789	1.000021
427.641756	1.000430
428.019662	1.000943
428.397508	1.000245
428.775292	1.000576
429.153016	0.999732
429.530679	1.000624
429.908282	1.001069
430.285824	1.000284
430.663305	0.999453
431.040726	0.999753
431.418086	1.000950
431.795385	1.000908
432.172624	0.999679
432.549802	1.001347
432.926920	1.000214
433.303977	0.999154
433.680974	1.000497
434.057910	0.999832
434.434786	1.000782
434.811601	1.000378
435.188355	0.999679
435.565050	0.999741
435.941683	1.000409
436.318257	1.001008
436.694770	1.000631
437.071222	1.000193
437.447614	1.001053
437.823946	1.000158
438.200218	1.000499
438.576429	0.999737
438.952580	1.000367
439.328670	1.000189
439.704700	1.001022
440.080670	1.001016
440.456580	0.999397
440.832429	0.999437
441.208218	1.000650
441.583947	1.000559
441.959616	1.000202
442.335224	0.999685
442.710773	1.001544
443.086261	1.000200
443.461689	1.000504
443.837057	0.999568
444.212365	1.000103
444.587612	0.999582
444.962800	0.999896
445.337927	1.000758
445.712995	1.000347
446.088002	1.000646
446.462949	1.000813
446.837837	1.000469
447.212664	1.000904
447.587431	1.000255
447.962139	0.999803
448.336786	1.000347
448.711374	1.000290
449.085901	0.999610
449.460369	1.001211
449.834776	0.999759
450.209124	1.000382
450.583412	1.000272
450.957640	1.000784
451.331808	1.000213
451.705917	1.000502
452.079965	1.000080
452.453954	1.000427
452.827883	1.000443
453.201752	1.000505
453.575562	1.000450
453.949311	1.000303
454.323001	1.000195
454.696632	0.999753
455.070202	1.000555
455.443713	0.999814
455.817164	1.000104
456.190556	0.999988
456.563888	1.000552
456.937160	1.000964
457.310373	1.000128
457.683526	1.000184
458.056619	0.999922
458.429653	1.000346
458.802628	0.999761
459.175542	1.000149
459.548398	0.999891
459.921194	1.000361
460.293930	1.000487
460.666607	0.999417
461.039224	0.999550
461.411782	0.999765
461.784280	0.999084
462.156719	1.001041
462.529099	1.000307
462.901419	1.000518
463.273680	0.999826
463.645882	1.000411
464.018024	0.999709
464.390106	0.999857
464.762130	1.000429
465.134094	1.000824
465.505999	1.000988
465.877845	0.999711
466.249631	1.000219
466.621358	1.000330
466.993026	1.000480
467.364634	0.999916
467.736184	1.000655
468.107674	1.000131
468.479105	0.999883
468.850477	1.000440
469.221790	1.000081
469.593043	1.000012
469.964238	1.000542
470.335373	0.999791
470.706449	1.000331
471.077467	1.000450
471.448425	1.000910
471.819324	1.000802
472.190164	0.999878
472.560945	1.000574
472.931667	1.000132
473.302330	0.999465
473.672934	1.000089
474.043479	1.000095
474.413965	1.000679
474.784393	1.000596
475.154761	1.000110
475.525070	0.999474
475.895321	1.000685
476.265513	1.000439
476.635645	1.000011
477.005719	1.000490
477.375734	1.000089
477.745691	0.999879
478.115588	1.000238
478.485427	1.000411
478.855207	1.000263
479.224928	1.000535
479.594591	0.999866
479.964194	0.999963
480.333739	1.000091
480.703226	1.000280
481.072653	1.000828
481.442022	1.000416
481.811333	0.999961
482.180584	1.000905
482.549777	0.999791
482.918912	0.999656
483.287988	1.000974
483.657005	1.000588
484.025964	1.001137
484.394864	1.000062
484.763706	1.000410
485.132489	1.000201
485.501213	1.000479
485.869879	1.000495
486.238487	1.001071
486.607036	1.001078
486.975527	0.999900
487.343959	1.000273
487.712333	0.999626
488.080648	1.000348
488.448905	0.999678
488.817104	1.000710
489.185244	1.000667
489.553326	1.000981
489.921350	0.999954
490.289315	0.999851
490.657222	1.000842
491.025070	1.000235
491.392861	1.000476
491.760593	1.000916
492.128267	1.000036
492.495883	1.000217
492.863440	1.000686
493.230939	1.000628
493.598380	0.999732
493.965763	1.000445
494.333088	1.000083
494.700354	0.999903
495.067563	1.000400
495.434713	0.999501
495.801805	1.000934
496.168839	0.999778
496.535815	1.000408
496.902733	0.999517
497.269593	1.000895
497.636395	1.000581
498.003139	1.000418
498.369825	1.000966
498.736453	0.999740
499.103023	0.999363
499.469535	0.999760
499.835989	0.999762
500.202385	1.000701
500.568723	0.999767
500.935003	1.000420
501.301226	1.000266
501.667390	0.999868
502.033497	1.000304
502.399546	1.001223
502.765537	1.000415
503.131470	0.999806
503.497345	1.000286
503.863163	1.000244
504.228923	1.000603
504.594625	1.000958
504.960269	1.000611
505.325856	1.000748
505.691385	1.000148
506.056856	0.999924
506.422270	1.000360
506.787625	1.000810
507.152924	1.000881
507.518164	0.999930
507.883347	1.000022
508.248472	1.000359
508.613540	1.000763
508.978550	1.001169
509.343503	0.999966
509.708398	1.000481
510.073236	1.000814
510.438016	1.000038
510.802738	0.999828
511.167403	1.000303
511.532010	1.000088
511.896561	1.000151
512.261053	1.000751
512.625488	1.000608
512.989866	0.999979
513.354186	0.999714
513.718449	1.000225
514.082655	1.000116
514.446803	1.000713
514.810894	1.000816
515.174927	1.000357
515.538904	1.000508
515.902822	1.000346
516.266684	1.000926
516.630488	1.001823
516.994235	1.000276
517.357925	0.999961
517.721558	1.000347
518.085133	0.999964
518.448651	1.000955
518.812112	1.000531
519.175516	0.999681
519.538863	1.001057
519.902152	0.999849
520.265385	1.000315
520.628560	1.000473
520.991678	1.000652
521.354739	1.000674
521.717743	1.000207
522.080690	1.000574
522.443580	1.000460
522.806413	1.000257
523.169189	1.000083
523.531908	0.999924
523.894569	1.000499
524.257174	1.000769
524.619722	1.000536
524.982213	1.000721
525.344647	1.000509
525.707025	1.000052
526.069345	1.000112
526.431608	1.000427
526.793815	1.000336
527.155964	1.000680
527.518057	1.000494
527.880093	1.000699
528.242072	1.000193
528.603995	1.000294
528.965860	1.001475
529.327669	1.000069
529.689421	1.000063
530.051117	1.001235
530.412755	1.000348
530.774337	1.001130
531.135862	1.000608
531.497331	1.000619
531.858743	1.000449
532.220098	1.001285
532.581396	1.000411
532.942638	1.001437
533.303824	1.001210
533.664953	1.000724
534.026025	1.000303
534.387040	1.000390
534.747999	1.000659
535.108902	1.001263
535.469748	1.000288
535.830537	1.000536
536.191270	1.000506
536.551947	1.000506
536.912567	1.000669
537.273131	1.001318
537.633638	0.999826
537.994089	1.000083
538.354483	1.000439
538.714821	1.000258
539.075103	1.000291
539.435328	1.000589
539.795497	1.000276
540.155609	1.000006
540.515665	1.000463
540.875665	1.000422
541.235609	1.000644
541.595496	0.999639
541.955328	0.999297
542.315102	1.000945
542.674821	1.000539
543.034483	1.000657
543.394090	0.999843
543.753640	1.000549
544.113134	0.999963
544.472571	1.000552
544.831953	1.000402
545.191278	1.000663
545.550548	1.000716
545.909761	0.999912
546.268918	1.000929
546.628019	1.000936
546.987064	1.000046
547.346053	1.000355
547.704986	1.000547
548.063863	1.000608
548.422684	1.000686
548.781449	1.000993
549.140158	1.000223
549.498811	1.000499
549.857408	1.000349
550.215949	1.000672
550.574434	1.000041
550.932864	1.000845
551.291237	1.000801
551.649555	1.000747
552.007817	1.000485
552.366022	0.999940
552.724173	1.000763
553.082267	1.000697
553.440305	1.000003
553.798288	1.000352
554.156215	1.000163
554.514086	1.000877
554.871902	1.000338
555.229661	1.000534
555.587365	1.000473
555.945014	1.000494
556.302606	1.000202
556.660143	1.000295
557.017625	0.999952
557.375050	1.000185
557.732421	1.000141
558.089735	1.000526
558.446994	1.001356
558.804197	1.000589
559.161345	1.001201
559.518437	1.000647
559.875474	0.999828
560.232455	1.000053
560.589381	1.000430
560.946251	0.999724
561.303065	1.000471
561.659825	1.000629
562.016528	0.999850
562.373177	1.000140
562.729770	1.000225
563.086307	1.000637
563.442789	1.000157
563.799216	1.000168
564.155587	1.000117
564.511904	1.000013
564.868164	0.999879
565.224370	0.999736
565.580520	1.000103
565.936615	0.999707
566.292654	1.000497
566.648638	1.000444
567.004567	1.000150
567.360441	1.001060
567.716260	1.000396
568.072023	1.000398
568.427732	0.999935
568.783385	1.000354
569.138982	1.000211
569.494525	0.999884
569.850013	0.999343
570.205445	1.000265
570.560823	1.000367
570.916145	1.000343
571.271412	1.000081
571.626625	1.000099
571.981782	0.999515
572.336884	1.000396
572.691931	1.000578
573.046923	1.000297
573.401860	1.000147
573.756743	0.999841
574.111570	1.000831
574.466342	1.000528
574.821059	0.999955
575.175722	1.000409
575.530330	1.000228
575.884882	0.999810
576.239380	1.000615
576.593823	0.999704
576.948211	0.999768
577.302544	1.000254
577.656823	1.000577
578.011047	0.999688
578.365216	0.999976
578.719330	0.999504
579.073389	1.000608
579.427394	0.999962
579.781344	1.000799
580.135239	1.000553
580.489080	1.000081
580.842866	1.000721
581.196597	0.999471
581.550273	0.999888
581.903895	0.999870
582.257463	0.999829
582.610975	1.000019
582.964434	1.000423
583.317837	1.000590
583.671186	0.999810
584.024481	0.999842
584.377721	1.000501
584.730906	0.999720
585.084037	0.999757
585.437113	1.000055
585.790135	0.999873
586.143103	0.999313
586.496016	1.000221
586.848874	1.000210
587.201679	0.999605
587.554428	0.999501
587.907124	1.000085
588.259765	1.000231
588.612352	1.000743
588.964884	0.999857
589.317362	1.000314
589.669786	1.000369
590.022155	1.000015
590.374470	0.999375
590.726731	0.999375
591.078937	0.999597
591.431090	0.999830
591.783188	1.000433
592.135232	1.000365
592.487222	0.999663
592.839157	1.000177
593.191038	1.000177
593.542866	0.999890
593.894639	1.000790
594.246358	0.999419
594.598022	0.999963
594.949633	0.999616
595.301190	1.000295
595.652692	0.999674
596.004141	1.000776
596.355535	0.999763
596.706876	1.000020
597.058162	1.001009
597.409395	1.000338
597.760573	1.000031
598.111698	0.999298
598.462768	0.999132
598.813785	0.999559
599.164748	1.000864
599.515657	0.999761
599.866511	1.000099
600.217312	0.999267
600.568060	0.999730
600.918753	1.000163
601.269392	0.999752
601.619978	0.999264
601.970510	0.999597
602.320988	0.999930
602.671412	0.999748
603.021783	1.000421
603.372100	1.000615
603.722363	1.000737
604.072572	1.000153
604.422728	0.999351
604.772830	0.999554
605.122878	0.999751
605.472872	0.999612
605.822813	0.999049
606.172701	0.999849
606.522534	1.000683
606.872314	0.999623
607.222041	0.999482
607.571714	1.000223
607.921333	0.999090
608.270899	0.999368
608.620411	1.000048
608.969870	1.000054
609.319276	0.999076
609.668627	0.999845
610.017926	0.998846
610.367171	0.998841
610.716362	0.998782
611.065500	0.999423
611.414585	0.999790
611.763616	1.000277
612.112594	0.999846
612.461518	0.999939
612.810389	0.999970
613.159207	0.999724
613.507971	0.999082
613.856682	1.000384
614.205340	0.999830
614.553945	0.998631
614.902496	1.000154
615.250994	0.999860
615.599439	0.999989
615.947830	0.999912
616.296169	1.000219
616.644454	0.999616
616.992686	0.999345
617.340864	0.999972
617.688990	1.000238
618.037063	0.999985
618.385082	0.999680
618.733048	0.999932
619.080961	0.999451
619.428821	0.999840
619.776628	0.998929
620.124382	0.999609
620.472083	0.998742
620.819731	0.999958
621.167326	0.999474
621.514868	0.999817
621.862357	0.999486
622.209793	1.000599
622.557176	0.998475
622.904506	0.999184
623.251783	0.999259
623.599007	0.999829
623.946179	0.999880
624.293297	0.999227
624.640363	0.999683
624.987376	0.998547
625.334336	1.000189
625.681243	0.999270
626.028097	1.000009
626.374899	0.999886
626.721647	1.000071
627.068343	1.000829
627.414987	0.999495
627.761577	1.000193
628.108115	0.999636
628.454600	0.999822
628.801032	0.999068
629.147412	0.999743
629.493739	0.998664
629.840014	0.999626
630.186236	0.999929
630.532405	0.999097
630.878521	0.999231
631.224585	0.999633
631.570597	0.999965
631.916556	0.999607
632.262462	0.999633
632.608316	0.999008
632.954117	0.999642
633.299866	0.999538
633.645562	0.999922
633.991206	1.000019
634.336797	1.000404
634.682336	0.999243
635.027823	0.999308
635.373257	0.999965
635.718639	0.999012
636.063968	0.999148
636.409245	0.999301
636.754470	0.999698
637.099642	1.000166
637.444762	0.999680
637.789829	0.998728
638.134845	0.998903
638.479808	0.999590
638.824719	0.999922
639.169577	0.998929
639.514383	0.999025
639.859137	0.998897
640.203839	0.999467
640.548489	0.999055
640.893086	0.998670
641.237632	1.000196
641.582125	0.999477
641.926566	0.998564
642.270955	1.000262
642.615292	0.999488
642.959576	0.999686
643.303809	0.999616
643.647990	0.999221
643.992118	0.999824
644.336195	0.999216
644.680219	0.999448
645.024192	0.999749
645.368112	0.999582
645.711981	0.999777
646.055797	0.999939
646.399562	0.999143
646.743274	0.998789
647.086935	0.999058
647.430544	0.998473
647.774101	0.999985
648.117606	0.999170
648.461059	0.998847
648.804460	0.999144
649.147810	0.999400
649.491108	0.999557
649.834354	0.999490
650.177548	1.000395
650.520690	0.999613
650.863781	0.999101
651.206820	0.999823
651.549807	0.999440
651.892742	0.999875
652.235626	0.999172
652.578458	0.999775
652.921238	0.999206
653.263967	1.000528
653.606644	1.000214
653.949269	0.999413
654.291843	0.999153
654.634365	0.999453
654.976836	0.999311
655.319255	0.999324
655.661622	0.999947
656.003938	0.999100
656.346203	0.999138
656.688416	0.999895
657.030577	1.000524
657.372687	0.999783
657.714746	0.998873
658.056753	0.999333
658.398708	0.999881
658.740612	0.999410
659.082465	0.999388
659.424266	0.999539
659.766016	0.999073
660.107715	0.998870
660.449362	0.999094
660.790958	0.999329
661.132503	0.998530
661.473996	0.998775
661.815438	0.999837
662.156829	0.999558
662.498168	0.999735
662.839456	0.998426
663.180693	1.000439
663.521879	0.999294
663.863013	0.999679
664.204097	1.000023
664.545129	1.000159
664.886110	0.999838
665.227040	0.999226
665.567918	0.999476
665.908746	0.999446
666.249522	0.998790
666.590248	0.999341
666.930922	0.999665
667.271545	0.999941
667.612118	0.999377
667.952639	0.999431
668.293109	1.000066
668.633528	0.999817
668.973896	0.999024
669.314213	0.999032
669.654480	0.999119
669.994695	0.998750
670.334859	0.998921
670.674973	0.998907
671.015035	0.999707
671.355047	0.999250
671.695008	0.999510
672.034918	0.999387
672.374777	0.999564
672.714585	1.000322
673.054342	0.999617
673.394049	0.998967
673.733705	0.998424
674.073310	0.998925
674.412864	0.999855
674.752368	0.998553
675.091820	1.000128
675.431223	1.000027
675.770574	0.999359
676.109875	0.999240
676.449125	0.999683
676.788324	0.998922
677.127473	1.001078
677.466571	0.998925
677.805619	0.999271
678.144616	0.999871
678.483562	0.999801
678.822458	0.999083
679.161303	1.000515
679.500098	0.998929
679.838842	1.000169
680.177535	1.000212
680.516179	0.999642
680.854771	1.000398
681.193314	0.999929
681.531805	0.999690
681.870247	0.999175
682.208638	0.999525
682.546978	0.999057
682.885268	0.999333
683.223508	0.999213
683.561697	0.998126
683.899836	0.999392
684.237925	0.999844
684.575963	0.999373
684.913951	0.999465
685.251889	1.000022
685.589776	0.999436
685.927614	0.999423
686.265401	0.999951
686.603137	0.998923
686.940824	0.999734
687.278460	0.999853
687.616046	0.999439
687.953582	0.999039
688.291068	0.999042
688.628504	1.000635
