Dividing Wavelength (nm)	Counts (n)	Blue Motor Position (mm): 0.000000	Red Motor Position (mm): 49.200000	
326.493990	1.000435
326.888308	1.000435
327.282561	1.000435
327.676750	0.999927
328.070874	0.999222
328.464933	1.001142
328.858929	0.999768
329.252859	0.999894
329.646726	0.999468
330.040528	1.000216
330.434265	0.998633
330.827938	1.001245
331.221547	1.000630
331.615091	1.000598
332.008571	1.000526
332.401986	1.000100
332.795338	0.999835
333.188625	0.998531
333.581847	0.999698
333.975006	0.999039
334.368100	0.999344
334.761129	0.999955
335.154095	1.000671
335.546996	0.999136
335.939833	0.999278
336.332606	1.000475
336.725315	1.000047
337.117960	1.001853
337.510540	1.000215
337.903056	0.999652
338.295508	0.999572
338.687896	1.000328
339.080220	0.999571
339.472480	1.000061
339.864676	1.001180
340.256807	1.000139
340.648875	1.001157
341.040879	1.001602
341.432818	1.000730
341.824694	0.999572
342.216506	1.000228
342.608253	0.999141
342.999937	0.999438
343.391557	0.999954
343.783113	1.000403
344.174605	1.000006
344.566033	1.001921
344.957397	0.998459
345.348697	0.999936
345.739934	1.000791
346.131106	0.999272
346.522215	0.998861
346.913260	0.999201
347.304241	0.999073
347.695159	1.000301
348.086012	0.998818
348.476802	1.000359
348.867528	1.001381
349.258191	0.997049
349.648789	1.001259
350.039324	0.999165
350.429796	1.000550
350.820203	0.999934
351.210548	0.998889
351.600828	0.999698
351.991045	0.999410
352.381198	0.999238
352.771288	1.000270
353.161314	0.999448
353.551276	1.001271
353.941175	1.000079
354.331010	0.999310
354.720782	0.999934
355.110490	1.000220
355.500135	1.000600
355.889717	0.998929
356.279235	1.000311
356.668689	1.000322
357.058080	0.999327
357.447408	1.000818
357.836672	1.000855
358.225873	1.001550
358.615010	1.000742
359.004084	1.001449
359.393095	0.999382
359.782043	1.000334
360.170927	1.000663
360.559748	1.001089
360.948505	0.999090
361.337199	0.999983
361.725830	1.000395
362.114398	0.999338
362.502903	1.001405
362.891344	1.000617
363.279722	1.000256
363.668037	1.000521
364.056289	1.000291
364.444478	1.001848
364.832603	1.000828
365.220665	0.999750
365.608665	1.000422
365.996601	1.000194
366.384474	1.000310
366.772284	1.000541
367.160031	0.999675
367.547715	0.999728
367.935336	1.000026
368.322893	1.000295
368.710388	0.998808
369.097820	1.000337
369.485189	0.999804
369.872495	1.000345
370.259738	0.998487
370.646918	1.001932
371.034035	1.000672
371.421090	0.999752
371.808081	0.999260
372.195010	1.001000
372.581875	1.000558
372.968678	1.000267
373.355418	0.999300
373.742096	0.999264
374.128710	1.001429
374.515262	0.999656
374.901751	0.999346
375.288177	0.999396
375.674540	1.000634
376.060841	0.999735
376.447079	1.000615
376.833254	1.000194
377.219367	0.999855
377.605417	1.000092
377.991404	1.000569
378.377329	1.000444
378.763191	1.000427
379.148991	1.000500
379.534727	1.000343
379.920402	1.000608
380.306013	1.000136
380.691563	1.000677
381.077049	1.000442
381.462474	0.999903
381.847835	1.000327
382.233134	1.000872
382.618371	1.000539
383.003545	0.999755
383.388657	1.000740
383.773706	1.000263
384.158693	1.000431
384.543618	1.000662
384.928480	1.000991
385.313280	0.999671
385.698017	1.001330
386.082692	1.000470
386.467305	1.001308
386.851856	1.000223
387.236344	1.000653
387.620770	1.000111
388.005133	1.000771
388.389435	1.001644
388.773674	1.000386
389.157851	1.001360
389.541965	1.000260
389.926018	0.999051
390.310008	1.001018
390.693936	1.001002
391.077802	1.000873
391.461606	0.999415
391.845348	1.000153
392.229027	1.001963
392.612645	1.000880
392.996200	1.002807
393.379694	0.999812
393.763125	1.001767
394.146494	1.000126
394.529801	0.999478
394.913047	1.001136
395.296230	1.000320
395.679351	1.000070
396.062410	0.999726
396.445408	1.000750
396.828343	1.000320
397.211217	0.999500
397.594028	1.001147
397.976778	0.999897
398.359466	1.000817
398.742092	1.000103
399.124656	0.999723
399.507158	1.001669
399.889598	1.001128
400.271977	1.001154
400.654294	1.001865
401.036549	1.000809
401.418742	1.000868
401.800874	1.000265
402.182944	1.000033
402.564952	0.998764
402.946898	1.000868
403.328783	1.001258
403.710606	1.000684
404.092367	1.000791
404.474067	1.000070
404.855705	0.999245
405.237282	1.000643
405.618797	1.000772
406.000250	1.000064
406.381642	1.000459
406.762972	1.001289
407.144240	1.001573
407.525447	1.000784
407.906593	1.000727
408.287677	1.001189
408.668700	1.001764
409.049661	0.999213
409.430560	1.001170
409.811399	1.000330
410.192176	1.000140
410.572891	1.000999
410.953545	1.000613
411.334138	0.999957
411.714669	1.000015
412.095139	1.000060
412.475547	1.001886
412.855894	1.000927
413.236180	1.001461
413.616405	1.000788
413.996568	1.001070
414.376670	1.000994
414.756711	0.999848
415.136691	1.001172
415.516609	1.000911
415.896466	1.001218
416.276262	0.999602
416.655997	1.001218
417.035670	1.000029
417.415283	1.000821
417.794834	1.001199
418.174324	1.000255
418.553753	1.000917
418.933121	1.000446
419.312428	1.000645
419.691674	1.000910
420.070859	1.000906
420.449983	1.000196
420.829045	1.001229
421.208047	1.001571
421.586988	1.002146
421.965867	1.000166
422.344686	1.000642
422.723444	1.000652
423.102141	1.000801
423.480777	1.001069
423.859352	1.000958
424.237866	1.000001
424.616319	1.000115
424.994712	1.001748
425.373044	1.000969
425.751314	1.001154
426.129524	1.001087
426.507673	1.001332
426.885762	1.001933
427.263789	1.001234
427.641756	1.000962
428.019662	1.001301
428.397508	1.000802
428.775292	0.999577
429.153016	1.000293
429.530679	1.001072
429.908282	1.001470
430.285824	1.000007
430.663305	1.000337
431.040726	1.001122
431.418086	1.001717
431.795385	1.001635
432.172624	1.000723
432.549802	1.001213
432.926920	1.000310
433.303977	1.001088
433.680974	1.001155
434.057910	1.000713
434.434786	1.001177
434.811601	1.000055
435.188355	1.000713
435.565050	1.000058
435.941683	1.000775
436.318257	1.001765
436.694770	1.000126
437.071222	0.999859
437.447614	1.000804
437.823946	1.000971
438.200218	1.000816
438.576429	1.001641
438.952580	1.001914
439.328670	1.000650
439.704700	1.000847
440.080670	1.001930
440.456580	1.000359
440.832429	1.000138
441.208218	1.001098
441.583947	1.001469
441.959616	1.001448
442.335224	1.001183
442.710773	1.002309
443.086261	1.000727
443.461689	1.000643
443.837057	1.000443
444.212365	1.000801
444.587612	1.000867
444.962800	1.000107
445.337927	1.001004
445.712995	1.001334
446.088002	1.001247
446.462949	1.001953
446.837837	1.000503
447.212664	1.001329
447.587431	1.000840
447.962139	1.000719
448.336786	1.001119
448.711374	1.001581
449.085901	1.000508
449.460369	1.001205
449.834776	1.001056
450.209124	1.001052
450.583412	1.001494
450.957640	1.000531
451.331808	1.001121
451.705917	1.001033
452.079965	1.001061
452.453954	1.001474
452.827883	1.001190
453.201752	1.000692
453.575562	1.001717
453.949311	1.002037
454.323001	1.000903
454.696632	1.000892
455.070202	1.000966
455.443713	1.000281
455.817164	1.001758
456.190556	1.001243
456.563888	1.001082
456.937160	1.002080
457.310373	1.001013
457.683526	1.000399
458.056619	1.000898
458.429653	1.001597
458.802628	1.000880
459.175542	1.001064
459.548398	1.001680
459.921194	1.000749
460.293930	1.000931
460.666607	1.001085
461.039224	0.999619
461.411782	1.000681
461.784280	1.000224
462.156719	1.001485
462.529099	1.001582
462.901419	1.001767
463.273680	1.001240
463.645882	1.000827
464.018024	1.001668
464.390106	1.001193
464.762130	1.002019
465.134094	1.001104
465.505999	1.001068
465.877845	1.001208
466.249631	1.001334
466.621358	1.001174
466.993026	1.000976
467.364634	1.001424
467.736184	1.001708
468.107674	1.001238
468.479105	1.000791
468.850477	1.001587
469.221790	1.001867
469.593043	1.001482
469.964238	1.002801
470.335373	1.001311
470.706449	1.001775
471.077467	1.001310
471.448425	1.001446
471.819324	1.001483
472.190164	1.001383
472.560945	1.001000
472.931667	1.001717
473.302330	1.001087
473.672934	1.001675
474.043479	1.001689
474.413965	1.000636
474.784393	1.001600
475.154761	1.000505
475.525070	1.000646
475.895321	1.001751
476.265513	1.000943
476.635645	1.001146
477.005719	1.001582
477.375734	1.001646
477.745691	1.001072
478.115588	1.001343
478.485427	1.001601
478.855207	1.000988
479.224928	1.001202
479.594591	1.001341
479.964194	1.001365
480.333739	1.001783
480.703226	1.001651
481.072653	1.002385
481.442022	1.001937
481.811333	1.001355
482.180584	1.001714
482.549777	1.001094
482.918912	1.001334
483.287988	1.001294
483.657005	1.001497
484.025964	1.002083
484.394864	1.001951
484.763706	1.001480
485.132489	1.001357
485.501213	1.001494
485.869879	1.002027
486.238487	1.001851
486.607036	1.002006
486.975527	1.000824
487.343959	1.001537
487.712333	1.001171
488.080648	1.001204
488.448905	1.001316
488.817104	1.001896
489.185244	1.001530
489.553326	1.001681
489.921350	1.000812
490.289315	1.001653
490.657222	1.001228
491.025070	1.001848
491.392861	1.001530
491.760593	1.001683
492.128267	1.001547
492.495883	1.001153
492.863440	1.001509
493.230939	1.001354
493.598380	1.001264
493.965763	1.001133
494.333088	1.001922
494.700354	1.001334
495.067563	1.001045
495.434713	1.001153
495.801805	1.001803
496.168839	1.001238
496.535815	1.000932
496.902733	1.001336
497.269593	1.001447
497.636395	1.001593
498.003139	1.001363
498.369825	1.001459
498.736453	1.001632
499.103023	1.000639
499.469535	1.000826
499.835989	1.001103
500.202385	1.001071
500.568723	1.001700
500.935003	1.001560
501.301226	1.002107
501.667390	1.000883
502.033497	1.001423
502.399546	1.001595
502.765537	1.001158
503.131470	1.001576
503.497345	1.001176
503.863163	1.001740
504.228923	1.001434
504.594625	1.001468
504.960269	1.001733
505.325856	1.001732
505.691385	1.000963
506.056856	1.001230
506.422270	1.001286
506.787625	1.002096
507.152924	1.001801
507.518164	1.000795
507.883347	1.000899
508.248472	1.001031
508.613540	1.000969
508.978550	1.001308
509.343503	1.000813
509.708398	1.001257
510.073236	1.001546
510.438016	1.001309
510.802738	1.001023
511.167403	1.000685
511.532010	1.001042
511.896561	1.001027
512.261053	1.002251
512.625488	1.001162
512.989866	1.001876
513.354186	1.001002
513.718449	1.001723
514.082655	1.000842
514.446803	1.001330
514.810894	1.001313
515.174927	1.001369
515.538904	1.001115
515.902822	1.001313
516.266684	1.001398
516.630488	1.002465
516.994235	1.001419
517.357925	1.000969
517.721558	1.001403
518.085133	1.000659
518.448651	1.001810
518.812112	1.001450
519.175516	1.001462
519.538863	1.001216
519.902152	1.001061
520.265385	1.000987
520.628560	1.001511
520.991678	1.001535
521.354739	1.002049
521.717743	1.001543
522.080690	1.001756
522.443580	1.001361
522.806413	1.001514
523.169189	1.000635
523.531908	1.000795
523.894569	1.001897
524.257174	1.001397
524.619722	1.001742
524.982213	1.001089
525.344647	1.001724
525.707025	1.001454
526.069345	1.000944
526.431608	1.001396
526.793815	1.001647
527.155964	1.001996
527.518057	1.002100
527.880093	1.001447
528.242072	1.001345
528.603995	1.000933
528.965860	1.002282
529.327669	1.001569
529.689421	1.001412
530.051117	1.001580
530.412755	1.001536
530.774337	1.001744
531.135862	1.001825
531.497331	1.001538
531.858743	1.001474
532.220098	1.001391
532.581396	1.001951
532.942638	1.001977
533.303824	1.001634
533.664953	1.001917
534.026025	1.001614
534.387040	1.001459
534.747999	1.001949
535.108902	1.001812
535.469748	1.001381
535.830537	1.001622
536.191270	1.001144
536.551947	1.001052
536.912567	1.001221
537.273131	1.002232
537.633638	1.000706
537.994089	1.001747
538.354483	1.001829
538.714821	1.001995
539.075103	1.001227
539.435328	1.001380
539.795497	1.001496
540.155609	1.000892
540.515665	1.001481
540.875665	1.001876
541.235609	1.001310
541.595496	1.001602
541.955328	1.001063
542.315102	1.001946
542.674821	1.001232
543.034483	1.000818
543.394090	1.000515
543.753640	1.001667
544.113134	1.001358
544.472571	1.001688
544.831953	1.001841
545.191278	1.001177
545.550548	1.002029
545.909761	1.000697
546.268918	1.001616
546.628019	1.001294
546.987064	1.001362
547.346053	1.001543
547.704986	1.001302
548.063863	1.001664
548.422684	1.001640
548.781449	1.001706
549.140158	1.001004
549.498811	1.001435
549.857408	1.001345
550.215949	1.001663
550.574434	1.000957
550.932864	1.000992
551.291237	1.001881
551.649555	1.001650
552.007817	1.001498
552.366022	1.000764
552.724173	1.001955
553.082267	1.001499
553.440305	1.001439
553.798288	1.001956
554.156215	1.001216
554.514086	1.001631
554.871902	1.001519
555.229661	1.001671
555.587365	1.001523
555.945014	1.002150
556.302606	1.001673
556.660143	1.001537
557.017625	1.000622
557.375050	1.001229
557.732421	1.001145
558.089735	1.001625
558.446994	1.002408
558.804197	1.001999
559.161345	1.002311
559.518437	1.002229
559.875474	1.000942
560.232455	1.001727
560.589381	1.001833
560.946251	1.000302
561.303065	1.001423
561.659825	1.001390
562.016528	1.001550
562.373177	1.001536
562.729770	1.001161
563.086307	1.001741
563.442789	1.001844
563.799216	1.001299
564.155587	1.001429
564.511904	1.001010
564.868164	1.001060
565.224370	1.001501
565.580520	1.002051
565.936615	1.001655
566.292654	1.001272
566.648638	1.001448
567.004567	1.001138
567.360441	1.001771
567.716260	1.001867
568.072023	1.001391
568.427732	1.001695
568.783385	1.001583
569.138982	1.001868
569.494525	1.001302
569.850013	1.001612
570.205445	1.001368
570.560823	1.001834
570.916145	1.001603
571.271412	1.001892
571.626625	1.001548
571.981782	1.000776
572.336884	1.001990
572.691931	1.001512
573.046923	1.001101
573.401860	1.001194
573.756743	1.001543
574.111570	1.001271
574.466342	1.001735
574.821059	1.001540
575.175722	1.001101
575.530330	1.001816
575.884882	1.001300
576.239380	1.002563
576.593823	1.001093
576.948211	1.000675
577.302544	1.001244
577.656823	1.001156
578.011047	1.001795
578.365216	1.001340
578.719330	1.001384
579.073389	1.001300
579.427394	1.001606
579.781344	1.001524
580.135239	1.001928
580.489080	1.002046
580.842866	1.001940
581.196597	1.000735
581.550273	1.001216
581.903895	1.001427
582.257463	1.001721
582.610975	1.001084
582.964434	1.001066
583.317837	1.002517
583.671186	1.001751
584.024481	1.000857
584.377721	1.001125
584.730906	1.001344
585.084037	1.000853
585.437113	1.001943
585.790135	1.001099
586.143103	1.000488
586.496016	1.001625
586.848874	1.001004
587.201679	1.001312
587.554428	1.001326
587.907124	1.001435
588.259765	1.001119
588.612352	1.002007
588.964884	1.001609
589.317362	1.001414
589.669786	1.001181
590.022155	1.001515
590.374470	1.000992
590.726731	1.000823
591.078937	1.000561
591.431090	1.000982
591.783188	1.000727
592.135232	1.001700
592.487222	1.001578
592.839157	1.000856
593.191038	1.001690
593.542866	1.001074
593.894639	1.002418
594.246358	1.000620
594.598022	1.000909
594.949633	1.001986
595.301190	1.000817
595.652692	1.001206
596.004141	1.001791
596.355535	1.001417
596.706876	1.001070
597.058162	1.001299
597.409395	1.001390
597.760573	1.001407
598.111698	1.001166
598.462768	1.001266
598.813785	1.000751
599.164748	1.001329
599.515657	1.000589
599.866511	1.001098
600.217312	1.001213
600.568060	1.001079
600.918753	1.001928
601.269392	1.001212
601.619978	1.001314
601.970510	1.001171
602.320988	1.001798
602.671412	1.000678
603.021783	1.001780
603.372100	1.002113
603.722363	1.001625
604.072572	1.001741
604.422728	1.001576
604.772830	1.001285
605.122878	1.000947
605.472872	1.001671
605.822813	1.000013
606.172701	1.001435
606.522534	1.001502
606.872314	1.001339
607.222041	1.000631
607.571714	1.001994
607.921333	1.000979
608.270899	1.001195
608.620411	1.001559
608.969870	1.001698
609.319276	1.000909
609.668627	1.001714
610.017926	1.000360
610.367171	1.000443
610.716362	1.001065
611.065500	1.000792
611.414585	1.000597
611.763616	1.001238
612.112594	1.000768
612.461518	1.001061
612.810389	1.000845
613.159207	1.001269
613.507971	1.001163
613.856682	1.001105
614.205340	1.001100
614.553945	1.000307
614.902496	1.001186
615.250994	1.000626
615.599439	1.001572
615.947830	1.001646
616.296169	1.000990
616.644454	1.000609
616.992686	1.001888
617.340864	1.000425
617.688990	1.001126
618.037063	1.001380
618.385082	1.000907
618.733048	1.001566
619.080961	1.001595
619.428821	1.001652
619.776628	1.000970
620.124382	1.001246
620.472083	1.001024
620.819731	1.001573
621.167326	1.000841
621.514868	1.001367
621.862357	1.000955
622.209793	1.001480
622.557176	0.999872
622.904506	1.001348
623.251783	1.001177
623.599007	1.001143
623.946179	1.001107
624.293297	1.001137
624.640363	1.001224
624.987376	1.000101
625.334336	1.001171
625.681243	1.001095
626.028097	1.001703
626.374899	1.001784
626.721647	1.001088
627.068343	1.001784
627.414987	1.001350
627.761577	1.000888
628.108115	1.001072
628.454600	1.001629
628.801032	1.001039
629.147412	1.001261
629.493739	1.000602
629.840014	1.001072
630.186236	1.001122
630.532405	1.001472
630.878521	1.000673
631.224585	1.000806
631.570597	1.000708
631.916556	1.000720
632.262462	1.001296
632.608316	1.001375
632.954117	1.000733
633.299866	1.000675
633.645562	1.000999
633.991206	1.001602
634.336797	1.001001
634.682336	1.001402
635.027823	1.001428
635.373257	1.001341
635.718639	1.001877
636.063968	1.000513
636.409245	1.000672
636.754470	1.001600
637.099642	1.001187
637.444762	1.001159
637.789829	1.001028
638.134845	1.000451
638.479808	1.001177
638.824719	1.001847
639.169577	1.000752
639.514383	1.000752
639.859137	1.000484
640.203839	1.001551
640.548489	1.000351
640.893086	1.001263
641.237632	1.001733
641.582125	1.000543
641.926566	1.000805
642.270955	1.001126
642.615292	1.001966
642.959576	1.000873
643.303809	1.001008
643.647990	1.000458
643.992118	1.001019
644.336195	1.001620
644.680219	1.001119
645.024192	1.000618
645.368112	1.000811
645.711981	1.001169
646.055797	1.001278
646.399562	1.000580
646.743274	1.000195
647.086935	1.000615
647.430544	0.999974
647.774101	1.000768
648.117606	1.000536
648.461059	1.001196
648.804460	1.000513
649.147810	1.000598
649.491108	1.001470
649.834354	1.000533
650.177548	1.001855
650.520690	1.001236
650.863781	1.000369
651.206820	1.001449
651.549807	1.001340
651.892742	1.001488
652.235626	1.000407
652.578458	1.000823
652.921238	1.000115
653.263967	1.001415
653.606644	1.001228
653.949269	1.000840
654.291843	1.000560
654.634365	1.000547
654.976836	1.001132
655.319255	1.000629
655.661622	1.001093
656.003938	1.000920
656.346203	1.000966
656.688416	1.000474
657.030577	1.001685
657.372687	1.000493
657.714746	1.000357
658.056753	1.001168
658.398708	1.000426
658.740612	1.001439
659.082465	1.001348
659.424266	1.001107
659.766016	1.000181
660.107715	1.000459
660.449362	0.999985
660.790958	1.000447
661.132503	0.999541
661.473996	1.000753
661.815438	1.000474
662.156829	0.999754
662.498168	1.001020
662.839456	0.999864
663.180693	1.001049
663.521879	1.001047
663.863013	1.000517
664.204097	1.001330
664.545129	1.000586
664.886110	1.000233
665.227040	0.999613
665.567918	1.000405
665.908746	1.000698
666.249522	1.000063
666.590248	1.000065
666.930922	1.000574
667.271545	1.000735
667.612118	1.001344
667.952639	1.000342
668.293109	1.000507
668.633528	1.000248
668.973896	1.000833
669.314213	1.000449
669.654480	1.000693
669.994695	1.000397
670.334859	1.000473
670.674973	1.000970
671.015035	1.001162
671.355047	1.000260
671.695008	1.000522
672.034918	1.000429
672.374777	1.001049
672.714585	1.000506
673.054342	1.000910
673.394049	1.000691
673.733705	1.000004
674.073310	1.000703
674.412864	1.000974
674.752368	1.000357
675.091820	1.001486
675.431223	1.000207
675.770574	1.000365
676.109875	1.000843
676.449125	1.000548
676.788324	1.000186
677.127473	1.001361
677.466571	1.001210
677.805619	1.000222
678.144616	1.000899
678.483562	1.000469
678.822458	1.001186
679.161303	1.001414
679.500098	1.000844
679.838842	1.000946
680.177535	1.001579
680.516179	1.001075
680.854771	1.000374
681.193314	1.000647
681.531805	1.000013
681.870247	0.999570
682.208638	1.000456
682.546978	1.000102
682.885268	1.000732
683.223508	1.001246
683.561697	0.999901
683.899836	1.000413
684.237925	1.001457
684.575963	1.000265
684.913951	1.000524
685.251889	1.000941
685.589776	1.000243
685.927614	1.000178
686.265401	1.001084
686.603137	0.999920
686.940824	0.999213
687.278460	1.000161
687.616046	1.000272
687.953582	1.000123
688.291068	1.000734
688.628504	1.001180
