Dividing Wavelength (nm)	Counts (n)	Blue Motor Position (mm): 0.000000	Red Motor Position (mm): 46.900000	
326.493990	1.001042
326.888308	1.001042
327.282561	1.001042
327.676750	0.999023
328.070874	1.001671
328.464933	1.001894
328.858929	0.999663
329.252859	1.000681
329.646726	1.000102
330.040528	1.000453
330.434265	1.000602
330.827938	1.000775
331.221547	1.000963
331.615091	1.000204
332.008571	1.000728
332.401986	1.000824
332.795338	1.000340
333.188625	0.999955
333.581847	1.001039
333.975006	1.000602
334.368100	1.000470
334.761129	0.999597
335.154095	1.002071
335.546996	1.000576
335.939833	0.999354
336.332606	1.000509
336.725315	1.002132
337.117960	1.001063
337.510540	1.000217
337.903056	1.000962
338.295508	0.999831
338.687896	1.001167
339.080220	1.000439
339.472480	1.000698
339.864676	1.000497
340.256807	1.000773
340.648875	1.001114
341.040879	0.999953
341.432818	1.000149
341.824694	1.000758
342.216506	1.001220
342.608253	1.000651
342.999937	1.000427
343.391557	1.001313
343.783113	1.000523
344.174605	0.999498
344.566033	1.001668
344.957397	0.999607
345.348697	0.999736
345.739934	1.000301
346.131106	1.000060
346.522215	0.999696
346.913260	0.999961
347.304241	1.000953
347.695159	0.998856
348.086012	0.998822
348.476802	1.000747
348.867528	1.000481
349.258191	0.999255
349.648789	1.000690
350.039324	0.999231
350.429796	1.000500
350.820203	1.000129
351.210548	1.000583
351.600828	1.000048
351.991045	1.001721
352.381198	0.999634
352.771288	1.000003
353.161314	0.999529
353.551276	1.002122
353.941175	0.998586
354.331010	1.000475
354.720782	1.001190
355.110490	1.000668
355.500135	1.001036
355.889717	1.000482
356.279235	0.999314
356.668689	0.999860
357.058080	1.000673
357.447408	1.001118
357.836672	1.000385
358.225873	1.000368
358.615010	1.000171
359.004084	1.001941
359.393095	1.000237
359.782043	0.999614
360.170927	1.001404
360.559748	1.001165
360.948505	0.999900
361.337199	1.000389
361.725830	1.001251
362.114398	1.000047
362.502903	1.000958
362.891344	1.002094
363.279722	1.000004
363.668037	1.001785
364.056289	1.001336
364.444478	1.001305
364.832603	0.999954
365.220665	0.999806
365.608665	1.000993
365.996601	0.999442
366.384474	1.000815
366.772284	1.001166
367.160031	0.999927
367.547715	0.999466
367.935336	1.000479
368.322893	1.000008
368.710388	1.000990
369.097820	1.000520
369.485189	1.000076
369.872495	1.000130
370.259738	0.998472
370.646918	1.001370
371.034035	1.000889
371.421090	1.000642
371.808081	0.999744
372.195010	1.001509
372.581875	1.000578
372.968678	0.999913
373.355418	1.000622
373.742096	0.999667
374.128710	1.001129
374.515262	1.000186
374.901751	1.000085
375.288177	1.001111
375.674540	1.000362
376.060841	0.999789
376.447079	1.000465
376.833254	1.000379
377.219367	1.000293
377.605417	1.001460
377.991404	0.999757
378.377329	1.000986
378.763191	1.000073
379.148991	1.001599
379.534727	0.999986
379.920402	1.000020
380.306013	0.999886
380.691563	1.001189
381.077049	0.999499
381.462474	1.000130
381.847835	0.999972
382.233134	1.000759
382.618371	1.000557
383.003545	0.999650
383.388657	0.999146
383.773706	1.001450
384.158693	1.000208
384.543618	1.000746
384.928480	1.000468
385.313280	0.999871
385.698017	1.001569
386.082692	1.000563
386.467305	1.000408
386.851856	1.000942
387.236344	0.999990
387.620770	0.999498
388.005133	1.001243
388.389435	1.001497
388.773674	1.000374
389.157851	1.001295
389.541965	1.001099
389.926018	1.000018
390.310008	1.001569
390.693936	0.999994
391.077802	1.000291
391.461606	1.000196
391.845348	1.000717
392.229027	1.001502
392.612645	0.999891
392.996200	1.001722
393.379694	0.999980
393.763125	1.001551
394.146494	1.000959
394.529801	0.999709
394.913047	1.001381
395.296230	0.999984
395.679351	1.000345
396.062410	1.000506
396.445408	1.000951
396.828343	1.000598
397.211217	1.000414
397.594028	1.001112
397.976778	1.000179
398.359466	1.000273
398.742092	0.999455
399.124656	0.999556
399.507158	1.000882
399.889598	1.001126
400.271977	1.001002
400.654294	1.000857
401.036549	0.999826
401.418742	1.000347
401.800874	0.999977
402.182944	1.000301
402.564952	0.999724
402.946898	1.000917
403.328783	1.001040
403.710606	0.999755
404.092367	0.999845
404.474067	1.000294
404.855705	0.999961
405.237282	1.000838
405.618797	1.000366
406.000250	0.999878
406.381642	1.000525
406.762972	1.000448
407.144240	1.001156
407.525447	1.000678
407.906593	1.000742
408.287677	1.000627
408.668700	1.000783
409.049661	0.999465
409.430560	1.000619
409.811399	0.999834
410.192176	1.000930
410.572891	0.999787
410.953545	1.000364
411.334138	0.999747
411.714669	1.000656
412.095139	1.000380
412.475547	1.001370
412.855894	1.000438
413.236180	1.000620
413.616405	1.000635
413.996568	1.000646
414.376670	1.000351
414.756711	1.000353
415.136691	1.000102
415.516609	1.000159
415.896466	1.000170
416.276262	0.999718
416.655997	1.000457
417.035670	0.999145
417.415283	1.000323
417.794834	0.999953
418.174324	0.999872
418.553753	1.001193
418.933121	0.999604
419.312428	0.999732
419.691674	1.000721
420.070859	1.000958
420.449983	1.000110
420.829045	0.999912
421.208047	1.001082
421.586988	1.001024
421.965867	0.999833
422.344686	1.000296
422.723444	1.000355
423.102141	1.000432
423.480777	1.001031
423.859352	1.000648
424.237866	1.000479
424.616319	1.000437
424.994712	1.000498
425.373044	1.000784
425.751314	1.000313
426.129524	0.999563
426.507673	1.000590
426.885762	1.001333
427.263789	0.999505
427.641756	0.999868
428.019662	1.001374
428.397508	0.999782
428.775292	0.999649
429.153016	1.000469
429.530679	1.001061
429.908282	1.001706
430.285824	0.999648
430.663305	1.000262
431.040726	1.000766
431.418086	1.002359
431.795385	1.000465
432.172624	0.999915
432.549802	1.000854
432.926920	1.001077
433.303977	1.000440
433.680974	1.001168
434.057910	1.000513
434.434786	1.001001
434.811601	0.999761
435.188355	0.999696
435.565050	1.000021
435.941683	1.001138
436.318257	1.001116
436.694770	1.000242
437.071222	1.000464
437.447614	1.000315
437.823946	1.000562
438.200218	1.000780
438.576429	1.000116
438.952580	1.001141
439.328670	1.000029
439.704700	1.000703
440.080670	1.000633
440.456580	1.000368
440.832429	0.999478
441.208218	1.001113
441.583947	1.000401
441.959616	1.000362
442.335224	1.000210
442.710773	1.001378
443.086261	1.000357
443.461689	1.000279
443.837057	0.999928
444.212365	1.000464
444.587612	0.999096
444.962800	0.999983
445.337927	1.000339
445.712995	1.000286
446.088002	1.000893
446.462949	1.000265
446.837837	1.000136
447.212664	1.000678
447.587431	1.001044
447.962139	1.000398
448.336786	1.000080
448.711374	1.000763
449.085901	0.999986
449.460369	1.000915
449.834776	1.000066
450.209124	1.000038
450.583412	0.999915
450.957640	1.000123
451.331808	0.999943
451.705917	1.000072
452.079965	0.999853
452.453954	1.000906
452.827883	1.000017
453.201752	1.000541
453.575562	1.000360
453.949311	1.000427
454.323001	1.000334
454.696632	0.999677
455.070202	1.000028
455.443713	0.999697
455.817164	1.000268
456.190556	1.000604
456.563888	1.000189
456.937160	1.000424
457.310373	1.000427
457.683526	1.000510
458.056619	1.000033
458.429653	1.000309
458.802628	0.999098
459.175542	0.999979
459.548398	1.000190
459.921194	1.000182
460.293930	0.999650
460.666607	0.999614
461.039224	0.998837
461.411782	1.000119
461.784280	0.999330
462.156719	1.000148
462.529099	1.000405
462.901419	0.999603
463.273680	1.000046
463.645882	1.000420
464.018024	1.000262
464.390106	1.000659
464.762130	1.001009
465.134094	1.001005
465.505999	1.000915
465.877845	1.000479
466.249631	1.000477
466.621358	1.000583
466.993026	1.000456
467.364634	0.999727
467.736184	1.000672
468.107674	1.000582
468.479105	1.000021
468.850477	1.000788
469.221790	1.000513
469.593043	1.000241
469.964238	1.001054
470.335373	0.999764
470.706449	1.000523
471.077467	1.000259
471.448425	1.000412
471.819324	1.001104
472.190164	0.999869
472.560945	0.999918
472.931667	0.999912
473.302330	0.999690
473.672934	1.000570
474.043479	1.000256
474.413965	0.999578
474.784393	1.000382
475.154761	1.000111
475.525070	0.999729
475.895321	1.000745
476.265513	0.999997
476.635645	0.999864
477.005719	1.000447
477.375734	1.000024
477.745691	1.000247
478.115588	1.000033
478.485427	1.001038
478.855207	1.000249
479.224928	1.001078
479.594591	1.001005
479.964194	1.000435
480.333739	1.000376
480.703226	1.000529
481.072653	1.000707
481.442022	1.000951
481.811333	0.999436
482.180584	1.000826
482.549777	1.000475
482.918912	1.000335
483.287988	1.000134
483.657005	1.000139
484.025964	1.000972
484.394864	1.000801
484.763706	1.000192
485.132489	1.000567
485.501213	1.000365
485.869879	0.999862
486.238487	1.000891
486.607036	1.000234
486.975527	0.999680
487.343959	0.999847
487.712333	0.999820
488.080648	1.000274
488.448905	1.000389
488.817104	1.000162
489.185244	1.000430
489.553326	1.000501
489.921350	1.000004
490.289315	1.000617
490.657222	1.000949
491.025070	1.000370
491.392861	1.000627
491.760593	1.000853
492.128267	0.999726
492.495883	0.999521
492.863440	0.999929
493.230939	1.000274
493.598380	1.000006
493.965763	0.999724
494.333088	1.000586
494.700354	1.000276
495.067563	1.000459
495.434713	0.999993
495.801805	1.001328
496.168839	0.999985
496.535815	1.000327
496.902733	1.000337
497.269593	0.999979
497.636395	1.000735
498.003139	1.000026
498.369825	1.001208
498.736453	0.999785
499.103023	0.999951
499.469535	1.000000
499.835989	0.999874
500.202385	0.999969
500.568723	0.999957
500.935003	1.000221
501.301226	1.000848
501.667390	1.000117
502.033497	0.999824
502.399546	1.000632
502.765537	0.999520
503.131470	0.999974
503.497345	1.000426
503.863163	1.000931
504.228923	1.000543
504.594625	1.000558
504.960269	1.000682
505.325856	1.000301
505.691385	1.000377
506.056856	0.999626
506.422270	1.000074
506.787625	1.000545
507.152924	1.000443
507.518164	1.000335
507.883347	1.000115
508.248472	1.000487
508.613540	1.000485
508.978550	1.000505
509.343503	0.999642
509.708398	1.000324
510.073236	1.000982
510.438016	1.000677
510.802738	1.000663
511.167403	1.000511
511.532010	1.000471
511.896561	0.999802
512.261053	1.000963
512.625488	1.000189
512.989866	1.000238
513.354186	1.000523
513.718449	1.000654
514.082655	1.000018
514.446803	1.000637
514.810894	1.000605
515.174927	1.000466
515.538904	0.999678
515.902822	1.000169
516.266684	1.000287
516.630488	1.000806
516.994235	0.999908
517.357925	1.000424
517.721558	1.000407
518.085133	0.999404
518.448651	1.001236
518.812112	1.000363
519.175516	0.999996
519.538863	1.001030
519.902152	0.999705
520.265385	0.999750
520.628560	0.999866
520.991678	1.000737
521.354739	1.000130
521.717743	1.000708
522.080690	1.000427
522.443580	0.999446
522.806413	1.000102
523.169189	0.999250
523.531908	1.000219
523.894569	1.000403
524.257174	1.000392
524.619722	1.000210
524.982213	1.000316
525.344647	1.000960
525.707025	1.000136
526.069345	0.999796
526.431608	0.999916
526.793815	1.000323
527.155964	1.000323
527.518057	1.000495
527.880093	1.000632
528.242072	1.000399
528.603995	0.999770
528.965860	1.001250
529.327669	0.999773
529.689421	1.000284
530.051117	1.001087
530.412755	1.000045
530.774337	1.001535
531.135862	0.999827
531.497331	1.000219
531.858743	1.000355
532.220098	1.000563
532.581396	1.000270
532.942638	1.000751
533.303824	1.000914
533.664953	1.000488
534.026025	1.000269
534.387040	1.000248
534.747999	1.000292
535.108902	1.001047
535.469748	0.999146
535.830537	0.999959
536.191270	1.000222
536.551947	1.000307
536.912567	1.000234
537.273131	1.000540
537.633638	0.999621
537.994089	1.000222
538.354483	1.000322
538.714821	1.000557
539.075103	1.000388
539.435328	1.000808
539.795497	1.000410
540.155609	1.000453
540.515665	1.000187
540.875665	1.000140
541.235609	0.999831
541.595496	0.999802
541.955328	0.999051
542.315102	1.000431
542.674821	1.000288
543.034483	0.999387
543.394090	0.999739
543.753640	0.999908
544.113134	1.000563
544.472571	1.000358
544.831953	1.000149
545.191278	1.000108
545.550548	1.000106
545.909761	0.999760
546.268918	1.000370
546.628019	1.000478
546.987064	1.000203
547.346053	1.000713
547.704986	1.000540
548.063863	1.000483
548.422684	1.000214
548.781449	1.000638
549.140158	0.999947
549.498811	1.000086
549.857408	1.000014
550.215949	1.000519
550.574434	0.999669
550.932864	1.000339
551.291237	1.000865
551.649555	1.000419
552.007817	0.999833
552.366022	0.999518
552.724173	1.000540
553.082267	1.000549
553.440305	0.999919
553.798288	1.000150
554.156215	1.000126
554.514086	1.000223
554.871902	0.999786
555.229661	1.000060
555.587365	1.000175
555.945014	1.000779
556.302606	0.999758
556.660143	0.999990
557.017625	0.999975
557.375050	1.000165
557.732421	1.000229
558.089735	1.000220
558.446994	1.001012
558.804197	1.000883
559.161345	1.001181
559.518437	1.001283
559.875474	0.999744
560.232455	0.999905
560.589381	1.000564
560.946251	0.999884
561.303065	1.000009
561.659825	1.000167
562.016528	1.000210
562.373177	1.000549
562.729770	0.999608
563.086307	0.999796
563.442789	1.000176
563.799216	1.000155
564.155587	0.999545
564.511904	0.999495
564.868164	0.999313
565.224370	0.999852
565.580520	1.000367
565.936615	1.000014
566.292654	1.000280
566.648638	0.999863
567.004567	1.000059
567.360441	0.999750
567.716260	1.000641
568.072023	1.000396
568.427732	1.000964
568.783385	1.000727
569.138982	0.999955
569.494525	0.999855
569.850013	1.000088
570.205445	1.000775
570.560823	1.000465
570.916145	0.999619
571.271412	0.999974
571.626625	0.999495
571.981782	0.999692
572.336884	1.000492
572.691931	1.000539
573.046923	0.999394
573.401860	1.000389
573.756743	1.000315
574.111570	1.000220
574.466342	1.000571
574.821059	1.000131
575.175722	1.000173
575.530330	1.000842
575.884882	1.000168
576.239380	1.000429
576.593823	1.000177
576.948211	0.999943
577.302544	0.999927
577.656823	1.000460
578.011047	1.000526
578.365216	0.999794
578.719330	0.999528
579.073389	1.000713
579.427394	0.999801
579.781344	1.000275
580.135239	1.000180
580.489080	1.000456
580.842866	1.000762
581.196597	0.999884
581.550273	0.999463
581.903895	1.000086
582.257463	1.000316
582.610975	0.999949
582.964434	1.000227
583.317837	1.000461
583.671186	0.999729
584.024481	0.999749
584.377721	1.000355
584.730906	1.000306
585.084037	1.000951
585.437113	1.000673
585.790135	0.999652
586.143103	0.999560
586.496016	1.001155
586.848874	0.999321
587.201679	1.000145
587.554428	1.000119
587.907124	1.000448
588.259765	0.999913
588.612352	1.000774
588.964884	1.000844
589.317362	1.000290
589.669786	1.000729
590.022155	1.000007
590.374470	1.000416
590.726731	1.000510
591.078937	0.999886
591.431090	0.999375
591.783188	1.000371
592.135232	1.000040
592.487222	1.000177
592.839157	1.000500
593.191038	1.000945
593.542866	0.999878
593.894639	1.000234
594.246358	0.999029
594.598022	1.000275
594.949633	1.000870
595.301190	1.000409
595.652692	1.000926
596.004141	1.000226
596.355535	1.000392
596.706876	0.999690
597.058162	1.000543
597.409395	1.000106
597.760573	1.000063
598.111698	1.000317
598.462768	0.999350
598.813785	1.000044
599.164748	1.000332
599.515657	0.999929
599.866511	0.999891
600.217312	0.999320
600.568060	0.999945
600.918753	1.000141
601.269392	1.000081
601.619978	1.000431
601.970510	1.000102
602.320988	1.000680
602.671412	1.000295
603.021783	1.000401
603.372100	1.000544
603.722363	1.000725
604.072572	0.999697
604.422728	1.000195
604.772830	1.000164
605.122878	0.999562
605.472872	1.000761
605.822813	1.000068
606.172701	0.999709
606.522534	1.000490
606.872314	1.000361
607.222041	0.999538
607.571714	1.000799
607.921333	0.999851
608.270899	0.999856
608.620411	1.000664
608.969870	1.000313
609.319276	0.999888
609.668627	1.001060
610.017926	0.999702
610.367171	0.999920
610.716362	0.999281
611.065500	0.999564
611.414585	1.000213
611.763616	1.000444
612.112594	0.999591
612.461518	0.999661
612.810389	1.000564
613.159207	1.000588
613.507971	1.000259
613.856682	1.000390
614.205340	1.000131
614.553945	0.999728
614.902496	1.000471
615.250994	1.000081
615.599439	1.000690
615.947830	1.000576
616.296169	1.000396
616.644454	0.999230
616.992686	1.000186
617.340864	0.999876
617.688990	1.000268
618.037063	1.000741
618.385082	1.000691
618.733048	1.000284
619.080961	1.000109
619.428821	1.000110
619.776628	0.999666
620.124382	1.000168
620.472083	0.999482
620.819731	1.000507
621.167326	1.000201
621.514868	1.000592
621.862357	1.000286
622.209793	1.000163
622.557176	0.999313
622.904506	1.000192
623.251783	0.999258
623.599007	1.000512
623.946179	1.000651
624.293297	1.000306
624.640363	1.000658
624.987376	0.999319
625.334336	1.000236
625.681243	1.000431
626.028097	1.000509
626.374899	1.000653
626.721647	1.000141
627.068343	1.000926
627.414987	0.999811
627.761577	1.000103
628.108115	0.999908
628.454600	1.000366
628.801032	1.000199
629.147412	0.999786
629.493739	0.999896
629.840014	1.000088
630.186236	1.000252
630.532405	0.999793
630.878521	1.000791
631.224585	1.000099
631.570597	1.000580
631.916556	1.000098
632.262462	1.000266
632.608316	1.000882
632.954117	1.000454
633.299866	0.999622
633.645562	0.999806
633.991206	1.000277
634.336797	1.001070
634.682336	1.000362
635.027823	1.000189
635.373257	1.000228
635.718639	1.000088
636.063968	0.999440
636.409245	1.000006
636.754470	0.999859
637.099642	1.000334
637.444762	1.000410
637.789829	0.999355
638.134845	0.999369
638.479808	0.999987
638.824719	1.000575
639.169577	0.999544
639.514383	1.000189
639.859137	0.999884
640.203839	1.000647
640.548489	0.999422
640.893086	1.000269
641.237632	1.000157
641.582125	0.999918
641.926566	0.999875
642.270955	1.000308
642.615292	1.000595
642.959576	0.999866
643.303809	0.999946
643.647990	0.999359
643.992118	1.000143
644.336195	1.000572
644.680219	1.000534
645.024192	0.999965
645.368112	0.999990
645.711981	1.000030
646.055797	1.000005
646.399562	0.999295
646.743274	0.999598
647.086935	0.999676
647.430544	0.999687
647.774101	0.999677
648.117606	1.000401
648.461059	0.999799
648.804460	1.000443
649.147810	0.999870
649.491108	1.000033
649.834354	0.999860
650.177548	1.000412
650.520690	1.000276
650.863781	1.000072
651.206820	0.999974
651.549807	1.000188
651.892742	0.999974
652.235626	1.000386
652.578458	1.000583
652.921238	1.000602
653.263967	1.000738
653.606644	1.000097
653.949269	1.000140
654.291843	0.999505
654.634365	1.000025
654.976836	0.999876
655.319255	1.000518
655.661622	1.000308
656.003938	0.999070
656.346203	1.000166
656.688416	0.999878
657.030577	1.000546
657.372687	0.999403
657.714746	0.999845
658.056753	1.001011
658.398708	1.000173
658.740612	1.000069
659.082465	1.000240
659.424266	1.000567
659.766016	0.998462
660.107715	0.999433
660.449362	0.999652
660.790958	0.999797
661.132503	0.998515
661.473996	0.998895
661.815438	0.999680
662.156829	0.999485
662.498168	1.000259
662.839456	0.999447
663.180693	1.000081
663.521879	1.000312
663.863013	1.000696
664.204097	1.000822
664.545129	1.000338
664.886110	1.000245
665.227040	0.999767
665.567918	0.999445
665.908746	0.999963
666.249522	0.999630
666.590248	0.999819
666.930922	1.000203
667.271545	1.000060
667.612118	1.000204
667.952639	0.999869
668.293109	1.000187
668.633528	1.000543
668.973896	1.000449
669.314213	0.999959
669.654480	1.000386
669.994695	1.000073
670.334859	0.999489
670.674973	0.999364
671.015035	0.999023
671.355047	0.999765
671.695008	0.999667
672.034918	0.999339
672.374777	0.999893
672.714585	0.999894
673.054342	0.999833
673.394049	0.999607
673.733705	0.998803
674.073310	0.998984
674.412864	0.999846
674.752368	0.999700
675.091820	1.000034
675.431223	0.999514
675.770574	0.998935
676.109875	0.999423
676.449125	0.999747
676.788324	0.998810
677.127473	1.000505
677.466571	0.999534
677.805619	0.999481
678.144616	0.998977
678.483562	0.999265
678.822458	0.999694
679.161303	0.999943
679.500098	0.999217
679.838842	0.999719
680.177535	0.999960
680.516179	0.998880
680.854771	1.000136
681.193314	0.999802
681.531805	0.999537
681.870247	0.999181
682.208638	0.999994
682.546978	0.999143
682.885268	0.999522
683.223508	0.999667
683.561697	0.998642
683.899836	0.999419
684.237925	0.999622
684.575963	0.998707
684.913951	0.998877
685.251889	0.999400
685.589776	0.999315
685.927614	0.998549
686.265401	0.999196
686.603137	0.998688
686.940824	0.998773
687.278460	0.998920
687.616046	0.998512
687.953582	0.998362
688.291068	0.998648
688.628504	0.999534
