Dividing Wavelength (nm)	Counts (n)	Blue Motor Position (mm): 0.000000	Red Motor Position (mm): 48.500000	
326.493990	1.000037
326.888308	1.000037
327.282561	1.000037
327.676750	1.000254
328.070874	0.999734
328.464933	1.001211
328.858929	1.000298
329.252859	1.000061
329.646726	1.000885
330.040528	1.000813
330.434265	0.999463
330.827938	1.001230
331.221547	1.001115
331.615091	1.000108
332.008571	1.000988
332.401986	1.000013
332.795338	1.000088
333.188625	0.998540
333.581847	1.001917
333.975006	1.000795
334.368100	0.999246
334.761129	1.000456
335.154095	1.001136
335.546996	1.000619
335.939833	0.999846
336.332606	1.000176
336.725315	1.000691
337.117960	1.001942
337.510540	0.999643
337.903056	1.001131
338.295508	0.999039
338.687896	1.000980
339.080220	1.000125
339.472480	1.000802
339.864676	1.000286
340.256807	1.000572
340.648875	1.002627
341.040879	1.000404
341.432818	0.999501
341.824694	0.999032
342.216506	1.001305
342.608253	0.999581
342.999937	1.000320
343.391557	1.000115
343.783113	1.000685
344.174605	1.000042
344.566033	1.001268
344.957397	0.999545
345.348697	1.000366
345.739934	0.999217
346.131106	0.999766
346.522215	0.999827
346.913260	0.999621
347.304241	1.000273
347.695159	1.001006
348.086012	1.000044
348.476802	1.001086
348.867528	1.001289
349.258191	0.997755
349.648789	1.000835
350.039324	1.000455
350.429796	1.001265
350.820203	1.000444
351.210548	1.000732
351.600828	1.000541
351.991045	1.001002
352.381198	0.999658
352.771288	1.000938
353.161314	1.000501
353.551276	1.002145
353.941175	1.000369
354.331010	1.001913
354.720782	1.001174
355.110490	1.000728
355.500135	1.000860
355.889717	0.999102
356.279235	1.000334
356.668689	0.999226
357.058080	0.999470
357.447408	1.000885
357.836672	1.001091
358.225873	1.000075
358.615010	1.001483
359.004084	1.001027
359.393095	1.001262
359.782043	1.000641
360.170927	1.001124
360.559748	1.002077
360.948505	1.000369
361.337199	1.000234
361.725830	1.000303
362.114398	1.000646
362.502903	1.000510
362.891344	1.002212
363.279722	0.999995
363.668037	1.001831
364.056289	1.001032
364.444478	1.002017
364.832603	1.001055
365.220665	1.000091
365.608665	0.999644
365.996601	1.000156
366.384474	0.999666
366.772284	1.000139
367.160031	0.998819
367.547715	0.999311
367.935336	1.000085
368.322893	1.000701
368.710388	1.000179
369.097820	1.000314
369.485189	0.999741
369.872495	1.000906
370.259738	0.999530
370.646918	1.001801
371.034035	1.001171
371.421090	1.000689
371.808081	1.000391
372.195010	1.000072
372.581875	1.000084
372.968678	0.999993
373.355418	1.001292
373.742096	0.999684
374.128710	1.000585
374.515262	1.000366
374.901751	1.000438
375.288177	1.000399
375.674540	1.001201
376.060841	0.998673
376.447079	1.000657
376.833254	1.000432
377.219367	1.000569
377.605417	1.000797
377.991404	1.000751
378.377329	0.999059
378.763191	0.999843
379.148991	1.001012
379.534727	0.999981
379.920402	1.000513
380.306013	1.000089
380.691563	1.000616
381.077049	0.999532
381.462474	0.999925
381.847835	1.000995
382.233134	1.000163
382.618371	1.000010
383.003545	0.999627
383.388657	0.999815
383.773706	1.001061
384.158693	1.001135
384.543618	0.999666
384.928480	1.000858
385.313280	1.000164
385.698017	1.000700
386.082692	1.000729
386.467305	1.000610
386.851856	0.999150
387.236344	1.000041
387.620770	0.998836
388.005133	1.000468
388.389435	1.001218
388.773674	1.000048
389.157851	0.999986
389.541965	0.999689
389.926018	0.999962
390.310008	1.001388
390.693936	0.999654
391.077802	1.000549
391.461606	0.999974
391.845348	1.000621
392.229027	1.001620
392.612645	1.001158
392.996200	1.001895
393.379694	1.000087
393.763125	1.001765
394.146494	1.000284
394.529801	1.000318
394.913047	1.000760
395.296230	1.001038
395.679351	1.000079
396.062410	0.999818
396.445408	1.000350
396.828343	1.000924
397.211217	1.000558
397.594028	1.001161
397.976778	0.999677
398.359466	0.999916
398.742092	1.000744
399.124656	0.999967
399.507158	0.999841
399.889598	1.000858
400.271977	1.000448
400.654294	1.000565
401.036549	1.001334
401.418742	1.000606
401.800874	0.999240
402.182944	1.000083
402.564952	0.998540
402.946898	1.000661
403.328783	0.999744
403.710606	0.999585
404.092367	1.000132
404.474067	1.001007
404.855705	1.000243
405.237282	1.001434
405.618797	0.999824
406.000250	0.999373
406.381642	1.000661
406.762972	1.001044
407.144240	1.001174
407.525447	1.000438
407.906593	1.001382
408.287677	1.000381
408.668700	1.000545
409.049661	0.999939
409.430560	0.999661
409.811399	0.999219
410.192176	1.000012
410.572891	0.999704
410.953545	1.000423
411.334138	0.999102
411.714669	1.000439
412.095139	0.999589
412.475547	1.001343
412.855894	1.000605
413.236180	1.000613
413.616405	1.000247
413.996568	1.000852
414.376670	1.000815
414.756711	1.000025
415.136691	0.999548
415.516609	0.999947
415.896466	0.999775
416.276262	0.999449
416.655997	1.000729
417.035670	0.999253
417.415283	1.000912
417.794834	0.999725
418.174324	1.000375
418.553753	1.000544
418.933121	1.000226
419.312428	1.000256
419.691674	1.000130
420.070859	1.000024
420.449983	1.000471
420.829045	1.000856
421.208047	1.001142
421.586988	1.000141
421.965867	1.000629
422.344686	1.000505
422.723444	1.000152
423.102141	1.000926
423.480777	1.000131
423.859352	1.000818
424.237866	1.000735
424.616319	1.000344
424.994712	1.000450
425.373044	1.001333
425.751314	1.000393
426.129524	0.999861
426.507673	1.000720
426.885762	1.000503
427.263789	1.000598
427.641756	1.000710
428.019662	1.000960
428.397508	1.000860
428.775292	0.999637
429.153016	1.000962
429.530679	1.001157
429.908282	1.000753
430.285824	1.000646
430.663305	0.999698
431.040726	1.000521
431.418086	1.001531
431.795385	1.001063
432.172624	0.999876
432.549802	1.000914
432.926920	1.000836
433.303977	0.999883
433.680974	1.000871
434.057910	1.000184
434.434786	1.000596
434.811601	1.000147
435.188355	1.000472
435.565050	1.000205
435.941683	1.000157
436.318257	1.001273
436.694770	0.999381
437.071222	1.000483
437.447614	1.000244
437.823946	1.000941
438.200218	1.000571
438.576429	1.001134
438.952580	1.001562
439.328670	1.000042
439.704700	1.000614
440.080670	1.000086
440.456580	1.001223
440.832429	0.999688
441.208218	1.000723
441.583947	1.000530
441.959616	1.000406
442.335224	1.000336
442.710773	1.000882
443.086261	1.000080
443.461689	0.999909
443.837057	1.000119
444.212365	1.000584
444.587612	0.999724
444.962800	1.000026
445.337927	1.000176
445.712995	1.000447
446.088002	1.001324
446.462949	1.000507
446.837837	1.000416
447.212664	1.000914
447.587431	1.001078
447.962139	1.000845
448.336786	1.000260
448.711374	1.001054
449.085901	1.000690
449.460369	1.001182
449.834776	1.000331
450.209124	1.001019
450.583412	0.999858
450.957640	1.000325
451.331808	1.000439
451.705917	1.000310
452.079965	0.999777
452.453954	1.000813
452.827883	0.999839
453.201752	1.000645
453.575562	1.001051
453.949311	1.000898
454.323001	1.000739
454.696632	1.000569
455.070202	1.000225
455.443713	0.999818
455.817164	1.001379
456.190556	1.000133
456.563888	1.000322
456.937160	1.000559
457.310373	0.999603
457.683526	1.000668
458.056619	1.000424
458.429653	1.000986
458.802628	1.000319
459.175542	1.000648
459.548398	1.000152
459.921194	1.000532
460.293930	1.000758
460.666607	1.000155
461.039224	0.998987
461.411782	1.000130
461.784280	0.999939
462.156719	1.001185
462.529099	1.000639
462.901419	1.000892
463.273680	0.999745
463.645882	1.000364
464.018024	1.000740
464.390106	1.001364
464.762130	1.001538
465.134094	1.000688
465.505999	1.000771
465.877845	1.000119
466.249631	1.000262
466.621358	1.000268
466.993026	1.000346
467.364634	1.000267
467.736184	1.001190
468.107674	1.000267
468.479105	1.000003
468.850477	1.000944
469.221790	1.000748
469.593043	1.000598
469.964238	1.001262
470.335373	1.000160
470.706449	1.000652
471.077467	1.000776
471.448425	1.000472
471.819324	1.000759
472.190164	1.000534
472.560945	1.001020
472.931667	1.000312
473.302330	0.999643
473.672934	1.000516
474.043479	1.000711
474.413965	1.000044
474.784393	1.000738
475.154761	1.000721
475.525070	1.000229
475.895321	1.001066
476.265513	1.000541
476.635645	1.000641
477.005719	1.000553
477.375734	0.999989
477.745691	1.000565
478.115588	1.000997
478.485427	1.000915
478.855207	1.000214
479.224928	1.000520
479.594591	1.000200
479.964194	1.000544
480.333739	1.001060
480.703226	1.000752
481.072653	1.001485
481.442022	1.001298
481.811333	0.999987
482.180584	1.000909
482.549777	1.000227
482.918912	1.000542
483.287988	1.001235
483.657005	1.000217
484.025964	1.001190
484.394864	1.000959
484.763706	1.000899
485.132489	1.000637
485.501213	0.999994
485.869879	1.000644
486.238487	1.000831
486.607036	1.001164
486.975527	1.000061
487.343959	1.000142
487.712333	1.000782
488.080648	1.000449
488.448905	1.000566
488.817104	1.000763
489.185244	1.001130
489.553326	1.000870
489.921350	1.000687
490.289315	1.000558
490.657222	1.000598
491.025070	1.000525
491.392861	1.000648
491.760593	1.000838
492.128267	1.000495
492.495883	1.000865
492.863440	1.001008
493.230939	1.000730
493.598380	1.000247
493.965763	0.999992
494.333088	1.000590
494.700354	0.999860
495.067563	1.000857
495.434713	1.001417
495.801805	1.001621
496.168839	1.001031
496.535815	1.000266
496.902733	1.000806
497.269593	1.000190
497.636395	1.001104
498.003139	1.000262
498.369825	1.001267
498.736453	1.000476
499.103023	1.000284
499.469535	1.000366
499.835989	1.000514
500.202385	1.000993
500.568723	1.000791
500.935003	1.000684
501.301226	1.000935
501.667390	1.000224
502.033497	1.000991
502.399546	1.000774
502.765537	1.000306
503.131470	1.000177
503.497345	1.000484
503.863163	1.001311
504.228923	1.000576
504.594625	1.000502
504.960269	1.001490
505.325856	1.000173
505.691385	1.000471
506.056856	0.999814
506.422270	0.999918
506.787625	1.001497
507.152924	1.000541
507.518164	1.000136
507.883347	1.000748
508.248472	1.000012
508.613540	1.001111
508.978550	1.001133
509.343503	1.000114
509.708398	1.000821
510.073236	1.000967
510.438016	1.000667
510.802738	1.000821
511.167403	1.000173
511.532010	1.000444
511.896561	1.000609
512.261053	1.001615
512.625488	1.000693
512.989866	1.000455
513.354186	1.000381
513.718449	1.000616
514.082655	1.000923
514.446803	1.000747
514.810894	1.001156
515.174927	1.000772
515.538904	1.000521
515.902822	1.000629
516.266684	1.000797
516.630488	1.000859
516.994235	1.000807
517.357925	1.000549
517.721558	1.001088
518.085133	1.000561
518.448651	1.001109
518.812112	1.000683
519.175516	1.000435
519.538863	1.001224
519.902152	1.000327
520.265385	1.001000
520.628560	1.000876
520.991678	1.000806
521.354739	1.000755
521.717743	1.000822
522.080690	1.001098
522.443580	1.000193
522.806413	1.000205
523.169189	1.000648
523.531908	1.000188
523.894569	1.000526
524.257174	1.001088
524.619722	1.000764
524.982213	1.001087
525.344647	1.000683
525.707025	1.000131
526.069345	1.000081
526.431608	1.001145
526.793815	1.000868
527.155964	1.000249
527.518057	1.000542
527.880093	1.000200
528.242072	0.999973
528.603995	1.000033
528.965860	1.001453
529.327669	1.000381
529.689421	1.000616
530.051117	1.001140
530.412755	1.000688
530.774337	1.001133
531.135862	1.000605
531.497331	1.000293
531.858743	1.001483
532.220098	1.000524
532.581396	1.001013
532.942638	1.000658
533.303824	1.000856
533.664953	1.000685
534.026025	1.000303
534.387040	1.000136
534.747999	1.000953
535.108902	1.000944
535.469748	1.000857
535.830537	1.001085
536.191270	1.001333
536.551947	1.000255
536.912567	1.000645
537.273131	1.001927
537.633638	1.000211
537.994089	1.000457
538.354483	1.000314
538.714821	1.000935
539.075103	1.000477
539.435328	1.000984
539.795497	1.001212
540.155609	1.000253
540.515665	1.000777
540.875665	1.000494
541.235609	1.000507
541.595496	1.000716
541.955328	0.999921
542.315102	1.000752
542.674821	1.000553
543.034483	1.000509
543.394090	1.000419
543.753640	0.999821
544.113134	1.000727
544.472571	1.001082
544.831953	1.000685
545.191278	1.000246
545.550548	1.001489
545.909761	1.000464
546.268918	1.001255
546.628019	1.000829
546.987064	1.000510
547.346053	1.001011
547.704986	1.000504
548.063863	1.000769
548.422684	1.000357
548.781449	1.001398
549.140158	0.999786
549.498811	1.001463
549.857408	1.000794
550.215949	1.000858
550.574434	1.000573
550.932864	1.000333
551.291237	1.000674
551.649555	1.000596
552.007817	1.000908
552.366022	1.000402
552.724173	1.001327
553.082267	1.001181
553.440305	1.000870
553.798288	1.000740
554.156215	1.000659
554.514086	1.000669
554.871902	1.000587
555.229661	1.000195
555.587365	1.000269
555.945014	1.001238
556.302606	1.000359
556.660143	1.000574
557.017625	1.000730
557.375050	1.000542
557.732421	1.000059
558.089735	1.000654
558.446994	1.001516
558.804197	1.001089
559.161345	1.001223
559.518437	1.000871
559.875474	0.999877
560.232455	1.000735
560.589381	1.000524
560.946251	1.000487
561.303065	1.000361
561.659825	1.000907
562.016528	1.000724
562.373177	1.000415
562.729770	1.000274
563.086307	1.001219
563.442789	1.000366
563.799216	1.000015
564.155587	1.000425
564.511904	1.000293
564.868164	1.000008
565.224370	1.000484
565.580520	1.000748
565.936615	0.999995
566.292654	0.999558
566.648638	1.000291
567.004567	1.000117
567.360441	1.000712
567.716260	1.001242
568.072023	1.000440
568.427732	1.000297
568.783385	1.000692
569.138982	1.001184
569.494525	1.000482
569.850013	1.000848
570.205445	1.000726
570.560823	1.000817
570.916145	1.000010
571.271412	1.000737
571.626625	1.000353
571.981782	0.999769
572.336884	1.000709
572.691931	1.000509
573.046923	0.999961
573.401860	1.001083
573.756743	1.000508
574.111570	1.000661
574.466342	1.000440
574.821059	1.001015
575.175722	1.000595
575.530330	1.000518
575.884882	1.000970
576.239380	1.001145
576.593823	1.000461
576.948211	1.000832
577.302544	1.001109
577.656823	1.000345
578.011047	1.000538
578.365216	1.000911
578.719330	0.999475
579.073389	1.000789
579.427394	1.000930
579.781344	1.001006
580.135239	1.000389
580.489080	1.000532
580.842866	1.000461
581.196597	1.000127
581.550273	1.000312
581.903895	1.000954
582.257463	1.000432
582.610975	1.000884
582.964434	1.000516
583.317837	1.001848
583.671186	1.000287
584.024481	1.000989
584.377721	1.000246
584.730906	1.000630
585.084037	1.000731
585.437113	1.000886
585.790135	1.000222
586.143103	1.000066
586.496016	1.001519
586.848874	1.000483
587.201679	1.000492
587.554428	1.000538
587.907124	1.000475
588.259765	1.000189
588.612352	1.000965
588.964884	1.000142
589.317362	1.000613
589.669786	1.000516
590.022155	1.000324
590.374470	1.000412
590.726731	1.000192
591.078937	0.999905
591.431090	1.000023
591.783188	1.000586
592.135232	1.000092
592.487222	1.000524
592.839157	0.999893
593.191038	1.000882
593.542866	1.000865
593.894639	1.001319
594.246358	0.999223
594.598022	1.000016
594.949633	1.000354
595.301190	0.999690
595.652692	1.000643
596.004141	1.000905
596.355535	1.000430
596.706876	1.000016
597.058162	1.000551
597.409395	1.000510
597.760573	1.000655
598.111698	1.000417
598.462768	1.000480
598.813785	1.000201
599.164748	1.000655
599.515657	0.999873
599.866511	1.000168
600.217312	1.000149
600.568060	1.000818
600.918753	1.001004
601.269392	1.000597
601.619978	1.000275
601.970510	1.000483
602.320988	1.000903
602.671412	1.000054
603.021783	1.000810
603.372100	1.001404
603.722363	1.000889
604.072572	1.000218
604.422728	1.000678
604.772830	1.000164
605.122878	0.999988
605.472872	1.001055
605.822813	1.000022
606.172701	1.000097
606.522534	1.001395
606.872314	1.000645
607.222041	1.000310
607.571714	1.000746
607.921333	1.000179
608.270899	1.000216
608.620411	1.001322
608.969870	1.000638
609.319276	1.000202
609.668627	1.001001
610.017926	1.000291
610.367171	1.000355
610.716362	1.000033
611.065500	0.999979
611.414585	1.000465
611.763616	1.000738
612.112594	0.999980
612.461518	0.999906
612.810389	1.000733
613.159207	1.000381
613.507971	1.000071
613.856682	1.000701
614.205340	1.000814
614.553945	0.999841
614.902496	1.000767
615.250994	1.000917
615.599439	1.001443
615.947830	0.999673
616.296169	1.000323
616.644454	1.000240
616.992686	1.000278
617.340864	0.999445
617.688990	1.000657
618.037063	1.000858
618.385082	1.000056
618.733048	1.000543
619.080961	1.000865
619.428821	1.001195
619.776628	1.000375
620.124382	1.000025
620.472083	0.999331
620.819731	1.001237
621.167326	1.000451
621.514868	0.999798
621.862357	1.000272
622.209793	1.000811
622.557176	0.998785
622.904506	1.000383
623.251783	0.999647
623.599007	1.001563
623.946179	1.000572
624.293297	1.000537
624.640363	1.000358
624.987376	0.999641
625.334336	1.000851
625.681243	0.999914
626.028097	1.001068
626.374899	1.000989
626.721647	1.000324
627.068343	1.001254
627.414987	1.000319
627.761577	1.000029
628.108115	0.999809
628.454600	1.000983
628.801032	1.000019
629.147412	1.000612
629.493739	1.000061
629.840014	1.000394
630.186236	1.000934
630.532405	1.000334
630.878521	1.000564
631.224585	1.000781
631.570597	1.000078
631.916556	0.999952
632.262462	1.000929
632.608316	1.000610
632.954117	0.999982
633.299866	1.000626
633.645562	1.000855
633.991206	1.000948
634.336797	1.001397
634.682336	1.000350
635.027823	1.000741
635.373257	1.001144
635.718639	1.000600
636.063968	0.999994
636.409245	0.999986
636.754470	1.001020
637.099642	1.000962
637.444762	1.000717
637.789829	1.000451
638.134845	1.000347
638.479808	1.000638
638.824719	1.000986
639.169577	1.000393
639.514383	1.000374
639.859137	1.000084
640.203839	1.001363
640.548489	1.000541
640.893086	1.000970
641.237632	1.000430
641.582125	0.999994
641.926566	1.000001
642.270955	1.000186
642.615292	1.000146
642.959576	1.001154
643.303809	1.000695
643.647990	1.000055
643.992118	1.000387
644.336195	1.001316
644.680219	1.000863
645.024192	1.000624
645.368112	1.000659
645.711981	1.000337
646.055797	1.000779
646.399562	1.000223
646.743274	0.998783
647.086935	0.999813
647.430544	1.000519
647.774101	1.000331
648.117606	1.001011
648.461059	0.999262
648.804460	0.999918
649.147810	1.000551
649.491108	1.000773
649.834354	1.000026
650.177548	1.000915
650.520690	1.001203
650.863781	1.000269
651.206820	1.000475
651.549807	1.000530
651.892742	1.000239
652.235626	1.000220
652.578458	1.001078
652.921238	0.999805
653.263967	1.001028
653.606644	1.001046
653.949269	1.000349
654.291843	1.000289
654.634365	1.000347
654.976836	1.000740
655.319255	1.000371
655.661622	1.000774
656.003938	1.000770
656.346203	1.000835
656.688416	1.000509
657.030577	1.001576
657.372687	1.000289
657.714746	0.999808
658.056753	1.000500
658.398708	1.001411
658.740612	1.000539
659.082465	1.001134
659.424266	1.001106
659.766016	0.999706
660.107715	0.999717
660.449362	1.000427
660.790958	0.999939
661.132503	0.998696
661.473996	1.001186
661.815438	1.000572
662.156829	1.000052
662.498168	1.001086
662.839456	1.000365
663.180693	1.001439
663.521879	1.001033
663.863013	1.000859
664.204097	1.000766
664.545129	1.000310
664.886110	1.000265
665.227040	1.000621
665.567918	1.000474
665.908746	1.000712
666.249522	0.999720
666.590248	1.000553
666.930922	1.000538
667.271545	1.000023
667.612118	1.000550
667.952639	1.000554
668.293109	1.000812
668.633528	1.000492
668.973896	1.000700
669.314213	0.999948
669.654480	1.001068
669.994695	1.000035
670.334859	1.000170
670.674973	0.999870
671.015035	1.000372
671.355047	1.000273
671.695008	1.000258
672.034918	0.999775
672.374777	1.001011
672.714585	1.000580
673.054342	1.000849
673.394049	1.000615
673.733705	0.999816
674.073310	0.999605
674.412864	1.001089
674.752368	0.999870
675.091820	1.000876
675.431223	0.999786
675.770574	1.000267
676.109875	1.000673
676.449125	1.000162
676.788324	1.000006
677.127473	1.001506
677.466571	1.000100
677.805619	1.000672
678.144616	1.001161
678.483562	1.000048
678.822458	1.000237
679.161303	1.002105
679.500098	0.999503
679.838842	1.001499
680.177535	1.000910
680.516179	1.000768
680.854771	0.999887
681.193314	1.001104
681.531805	1.000769
681.870247	1.000406
682.208638	1.000362
682.546978	1.000266
682.885268	0.999858
683.223508	1.001101
683.561697	0.999134
683.899836	1.000919
684.237925	1.001176
684.575963	1.000511
684.913951	1.000298
685.251889	1.000606
685.589776	1.000180
685.927614	1.000835
686.265401	1.000438
686.603137	1.000716
686.940824	1.000870
687.278460	0.999938
687.616046	1.000292
687.953582	0.999751
688.291068	0.999853
688.628504	1.001318
