Dividing Wavelength (nm)	Counts (n)	Blue Motor Position (mm): 0.000000	Red Motor Position (mm): 45.400000	
326.493990	1.001498
326.888308	1.001498
327.282561	1.001498
327.676750	1.000444
328.070874	0.999759
328.464933	1.000361
328.858929	1.000489
329.252859	0.999405
329.646726	1.000170
330.040528	0.999981
330.434265	0.998589
330.827938	1.001430
331.221547	1.001120
331.615091	1.000854
332.008571	0.999959
332.401986	0.999522
332.795338	0.999499
333.188625	0.999156
333.581847	1.000908
333.975006	1.000646
334.368100	1.000278
334.761129	1.000386
335.154095	1.000741
335.546996	0.999120
335.939833	0.998885
336.332606	0.998862
336.725315	1.000602
337.117960	1.001194
337.510540	1.000695
337.903056	1.000542
338.295508	0.998000
338.687896	1.000580
339.080220	1.000058
339.472480	0.999012
339.864676	1.000020
340.256807	0.999931
340.648875	1.000239
341.040879	0.999577
341.432818	1.000289
341.824694	0.999776
342.216506	1.001872
342.608253	0.999535
342.999937	0.997980
343.391557	0.999887
343.783113	0.999547
344.174605	0.999570
344.566033	1.000170
344.957397	1.000223
345.348697	0.998545
345.739934	0.999679
346.131106	0.999876
346.522215	0.999782
346.913260	1.000067
347.304241	1.000266
347.695159	0.999072
348.086012	0.997764
348.476802	0.999097
348.867528	1.000029
349.258191	0.998441
349.648789	1.000177
350.039324	1.000825
350.429796	1.001212
350.820203	1.000920
351.210548	0.999913
351.600828	0.999243
351.991045	1.000411
352.381198	0.997910
352.771288	0.999312
353.161314	0.999066
353.551276	1.000581
353.941175	0.999567
354.331010	0.999603
354.720782	0.999765
355.110490	0.999794
355.500135	1.000952
355.889717	0.999492
356.279235	1.000296
356.668689	1.000042
357.058080	0.999168
357.447408	1.000243
357.836672	1.000305
358.225873	1.000335
358.615010	0.999792
359.004084	0.999502
359.393095	1.000377
359.782043	0.999453
360.170927	1.000962
360.559748	1.000551
360.948505	0.998487
361.337199	1.000244
361.725830	0.999450
362.114398	0.999593
362.502903	0.999923
362.891344	1.000656
363.279722	0.999634
363.668037	1.000210
364.056289	0.998950
364.444478	1.000346
364.832603	0.999975
365.220665	0.999703
365.608665	0.999337
365.996601	0.999407
366.384474	1.000419
366.772284	0.998132
367.160031	0.999451
367.547715	0.999425
367.935336	0.998877
368.322893	0.999456
368.710388	0.997793
369.097820	0.999384
369.485189	0.999770
369.872495	0.998797
370.259738	0.999276
370.646918	1.000311
371.034035	1.000158
371.421090	0.999939
371.808081	0.999492
372.195010	0.999946
372.581875	1.000069
372.968678	0.999525
373.355418	0.999239
373.742096	1.000127
374.128710	1.000430
374.515262	0.998756
374.901751	0.999768
375.288177	1.000081
375.674540	0.999918
376.060841	0.998874
376.447079	0.999897
376.833254	0.998228
377.219367	0.998771
377.605417	0.999286
377.991404	1.000218
378.377329	0.998725
378.763191	0.999547
379.148991	1.000200
379.534727	1.000162
379.920402	0.998693
380.306013	1.000241
380.691563	1.000019
381.077049	0.998651
381.462474	0.999684
381.847835	0.999391
382.233134	1.000153
382.618371	0.999198
383.003545	0.999775
383.388657	0.999673
383.773706	1.000279
384.158693	0.999985
384.543618	0.999269
384.928480	0.999622
385.313280	0.999779
385.698017	1.000425
386.082692	1.000186
386.467305	0.999690
386.851856	0.998894
387.236344	0.999498
387.620770	0.998729
388.005133	0.999902
388.389435	1.000257
388.773674	0.999246
389.157851	1.000295
389.541965	1.000788
389.926018	0.999497
390.310008	1.000068
390.693936	0.999125
391.077802	1.001051
391.461606	0.999700
391.845348	1.000667
392.229027	1.001405
392.612645	0.999971
392.996200	1.001469
393.379694	0.999716
393.763125	1.000606
394.146494	1.000333
394.529801	0.999795
394.913047	1.000305
395.296230	1.000317
395.679351	1.000445
396.062410	0.998927
396.445408	1.000108
396.828343	0.999540
397.211217	0.999623
397.594028	1.000599
397.976778	0.999763
398.359466	0.999460
398.742092	0.999674
399.124656	0.999191
399.507158	0.999604
399.889598	0.999966
400.271977	1.000585
400.654294	1.000929
401.036549	0.999649
401.418742	1.000691
401.800874	0.998803
402.182944	0.999563
402.564952	0.999173
402.946898	0.999792
403.328783	1.000021
403.710606	0.999817
404.092367	0.999841
404.474067	1.000795
404.855705	0.999846
405.237282	1.000152
405.618797	0.999937
406.000250	0.999756
406.381642	1.000421
406.762972	1.000420
407.144240	1.000235
407.525447	1.001071
407.906593	1.000149
408.287677	1.000208
408.668700	0.999986
409.049661	0.998768
409.430560	1.000298
409.811399	1.000400
410.192176	0.999580
410.572891	0.999839
410.953545	0.999509
411.334138	0.998995
411.714669	1.000281
412.095139	1.000216
412.475547	1.001067
412.855894	0.999943
413.236180	1.000804
413.616405	1.000441
413.996568	1.000968
414.376670	0.999912
414.756711	1.000028
415.136691	1.000517
415.516609	0.999774
415.896466	1.000188
416.276262	0.998922
416.655997	1.000514
417.035670	0.999920
417.415283	1.000051
417.794834	1.000303
418.174324	0.999826
418.553753	1.000377
418.933121	0.999554
419.312428	1.000192
419.691674	1.000017
420.070859	1.001027
420.449983	1.000253
420.829045	1.000767
421.208047	1.000958
421.586988	1.001355
421.965867	1.000058
422.344686	1.001362
422.723444	1.000066
423.102141	1.000210
423.480777	1.000615
423.859352	0.999764
424.237866	1.000250
424.616319	1.000324
424.994712	1.000387
425.373044	1.001214
425.751314	1.000354
426.129524	0.999968
426.507673	1.000387
426.885762	1.001342
427.263789	1.000479
427.641756	1.000445
428.019662	1.000913
428.397508	1.000332
428.775292	1.000206
429.153016	1.000539
429.530679	1.000945
429.908282	1.001163
430.285824	0.999931
430.663305	1.000322
431.040726	1.000635
431.418086	1.002412
431.795385	1.000366
432.172624	0.999753
432.549802	1.000490
432.926920	1.000928
433.303977	0.999840
433.680974	1.000873
434.057910	1.000365
434.434786	1.000942
434.811601	0.999841
435.188355	0.999546
435.565050	0.999700
435.941683	0.999217
436.318257	1.001337
436.694770	0.999808
437.071222	1.000547
437.447614	1.000956
437.823946	0.999948
438.200218	0.999974
438.576429	1.000850
438.952580	1.000656
439.328670	1.000234
439.704700	1.000845
440.080670	1.001223
440.456580	1.000017
440.832429	0.999705
441.208218	1.000759
441.583947	1.001207
441.959616	1.000411
442.335224	1.000261
442.710773	1.001093
443.086261	0.999706
443.461689	1.000535
443.837057	0.999833
444.212365	1.000601
444.587612	1.000292
444.962800	1.000029
445.337927	1.000981
445.712995	1.000420
446.088002	1.001277
446.462949	1.000719
446.837837	1.000744
447.212664	1.001107
447.587431	1.000572
447.962139	1.000486
448.336786	1.000578
448.711374	1.000924
449.085901	1.000700
449.460369	1.001611
449.834776	0.999791
450.209124	1.001015
450.583412	1.000922
450.957640	1.000538
451.331808	1.000627
451.705917	0.999586
452.079965	1.000618
452.453954	1.000545
452.827883	1.000269
453.201752	1.001389
453.575562	1.001643
453.949311	1.001241
454.323001	1.000523
454.696632	1.000239
455.070202	1.000603
455.443713	1.000522
455.817164	1.000936
456.190556	1.000536
456.563888	1.000174
456.937160	1.001238
457.310373	1.000307
457.683526	0.999908
458.056619	1.000539
458.429653	1.001411
458.802628	1.000033
459.175542	0.999850
459.548398	1.001121
459.921194	1.000776
460.293930	1.000491
460.666607	0.999834
461.039224	0.999310
461.411782	1.000815
461.784280	1.000211
462.156719	1.001279
462.529099	1.000901
462.901419	1.000323
463.273680	1.000478
463.645882	1.001151
464.018024	1.000987
464.390106	1.000643
464.762130	1.001446
465.134094	1.000601
465.505999	1.001656
465.877845	1.000951
466.249631	1.001457
466.621358	1.000463
466.993026	1.000444
467.364634	1.000604
467.736184	1.001591
468.107674	1.000309
468.479105	1.000711
468.850477	1.000705
469.221790	1.000557
469.593043	1.000704
469.964238	1.001028
470.335373	1.000540
470.706449	1.000585
471.077467	1.001391
471.448425	1.000369
471.819324	1.001167
472.190164	1.000573
472.560945	1.001019
472.931667	1.000162
473.302330	1.000061
473.672934	1.000920
474.043479	1.001320
474.413965	1.000782
474.784393	1.000553
475.154761	1.001063
475.525070	0.999945
475.895321	1.001289
476.265513	1.000556
476.635645	1.000647
477.005719	1.000709
477.375734	1.001017
477.745691	1.000836
478.115588	1.000702
478.485427	1.001646
478.855207	1.000476
479.224928	1.001119
479.594591	1.000305
479.964194	1.000497
480.333739	1.001036
480.703226	1.000828
481.072653	1.001236
481.442022	1.001398
481.811333	1.000643
482.180584	1.001388
482.549777	1.000223
482.918912	1.000882
483.287988	1.001224
483.657005	1.000771
484.025964	1.001435
484.394864	1.001982
484.763706	1.001066
485.132489	1.001409
485.501213	1.001140
485.869879	1.000791
486.238487	1.001240
486.607036	1.000983
486.975527	1.000714
487.343959	1.000485
487.712333	1.000546
488.080648	1.001434
488.448905	1.001450
488.817104	1.001319
489.185244	1.000786
489.553326	1.001183
489.921350	1.000895
490.289315	1.000551
490.657222	1.001340
491.025070	1.001365
491.392861	1.001473
491.760593	1.000862
492.128267	1.000635
492.495883	1.001281
492.863440	1.001025
493.230939	1.001506
493.598380	1.000576
493.965763	1.000790
494.333088	1.000876
494.700354	1.000737
495.067563	1.000977
495.434713	1.000684
495.801805	1.001429
496.168839	1.001570
496.535815	1.000500
496.902733	1.000319
497.269593	1.000734
497.636395	1.001048
498.003139	1.001291
498.369825	1.001406
498.736453	1.001151
499.103023	0.999934
499.469535	1.000379
499.835989	1.000683
500.202385	1.000749
500.568723	1.000999
500.935003	1.000858
501.301226	1.001300
501.667390	1.000809
502.033497	1.000917
502.399546	1.001352
502.765537	1.000658
503.131470	1.000886
503.497345	1.000947
503.863163	1.001506
504.228923	1.000778
504.594625	1.001228
504.960269	1.000935
505.325856	1.000850
505.691385	1.000886
506.056856	1.001480
506.422270	1.001018
506.787625	1.000266
507.152924	1.000665
507.518164	1.000663
507.883347	1.000764
508.248472	1.000550
508.613540	1.000805
508.978550	1.001022
509.343503	1.000597
509.708398	1.000689
510.073236	1.000711
510.438016	1.001519
510.802738	1.000560
511.167403	1.000471
511.532010	1.000594
511.896561	1.000676
512.261053	1.001265
512.625488	1.001076
512.989866	1.000584
513.354186	1.000755
513.718449	1.000283
514.082655	1.001109
514.446803	1.000756
514.810894	1.000914
515.174927	1.000854
515.538904	1.000649
515.902822	1.000700
516.266684	1.000573
516.630488	1.001919
516.994235	1.000254
517.357925	1.000562
517.721558	1.000472
518.085133	1.000442
518.448651	1.002120
518.812112	1.001145
519.175516	1.000420
519.538863	1.001040
519.902152	1.000547
520.265385	1.000694
520.628560	1.000836
520.991678	1.001367
521.354739	1.000923
521.717743	1.000869
522.080690	1.001378
522.443580	1.000946
522.806413	1.000910
523.169189	1.000001
523.531908	1.000246
523.894569	1.000335
524.257174	1.001135
524.619722	1.001066
524.982213	1.000449
525.344647	1.000797
525.707025	1.000097
526.069345	1.000609
526.431608	1.000777
526.793815	1.000684
527.155964	1.001034
527.518057	1.000735
527.880093	1.001059
528.242072	1.000936
528.603995	1.000612
528.965860	1.001630
529.327669	1.001346
529.689421	1.000651
530.051117	1.001391
530.412755	1.000330
530.774337	1.000933
531.135862	1.000803
531.497331	1.000798
531.858743	1.000952
532.220098	1.000913
532.581396	1.001173
532.942638	1.001627
533.303824	1.000646
533.664953	1.000680
534.026025	1.000405
534.387040	1.000047
534.747999	1.000884
535.108902	1.001045
535.469748	1.000738
535.830537	1.000609
536.191270	1.001011
536.551947	1.000177
536.912567	1.001772
537.273131	1.001613
537.633638	1.000074
537.994089	1.000487
538.354483	1.000583
538.714821	1.000760
539.075103	1.000719
539.435328	1.000140
539.795497	1.000494
540.155609	1.000256
540.515665	1.000782
540.875665	1.000821
541.235609	0.999975
541.595496	0.999953
541.955328	1.000037
542.315102	1.000652
542.674821	1.000555
543.034483	1.000124
543.394090	0.999722
543.753640	1.000830
544.113134	1.000489
544.472571	1.000937
544.831953	1.000232
545.191278	1.000454
545.550548	1.001055
545.909761	0.999949
546.268918	1.000031
546.628019	1.000494
546.987064	1.000255
547.346053	1.000623
547.704986	1.000793
548.063863	1.000399
548.422684	1.000648
548.781449	1.000744
549.140158	1.000208
549.498811	1.000233
549.857408	1.000249
550.215949	1.000886
550.574434	1.000266
550.932864	1.000022
551.291237	1.001076
551.649555	1.000205
552.007817	0.999582
552.366022	1.000446
552.724173	1.000569
553.082267	1.000446
553.440305	0.999828
553.798288	1.000267
554.156215	0.999642
554.514086	1.000592
554.871902	1.000181
555.229661	1.000114
555.587365	1.000459
555.945014	1.001195
556.302606	1.000556
556.660143	1.000645
557.017625	0.999682
557.375050	1.000157
557.732421	1.000817
558.089735	0.999913
558.446994	1.000726
558.804197	1.000350
559.161345	1.001209
559.518437	1.001539
559.875474	1.000297
560.232455	1.000187
560.589381	1.000285
560.946251	0.999208
561.303065	1.000282
561.659825	1.000136
562.016528	0.999993
562.373177	1.000837
562.729770	0.999789
563.086307	1.000531
563.442789	1.000943
563.799216	1.000603
564.155587	1.000010
564.511904	0.999504
564.868164	0.999581
565.224370	0.999777
565.580520	1.000429
565.936615	1.000024
566.292654	1.000090
566.648638	1.000179
567.004567	1.000750
567.360441	1.001450
567.716260	1.000234
568.072023	1.000806
568.427732	1.000055
568.783385	1.000766
569.138982	1.000289
569.494525	0.999916
569.850013	1.000757
570.205445	1.000964
570.560823	1.000652
570.916145	0.999966
571.271412	1.000973
571.626625	1.000450
571.981782	1.000293
572.336884	1.001145
572.691931	1.000387
573.046923	1.000744
573.401860	1.000578
573.756743	1.000291
574.111570	1.000901
574.466342	1.000825
574.821059	1.000420
575.175722	1.000632
575.530330	1.000902
575.884882	1.000134
576.239380	1.001272
576.593823	1.000460
576.948211	0.999942
577.302544	1.000362
577.656823	1.000706
578.011047	1.000452
578.365216	1.000329
578.719330	1.000006
579.073389	1.001154
579.427394	0.999941
579.781344	1.000225
580.135239	1.000677
580.489080	1.000392
580.842866	1.001091
581.196597	1.000007
581.550273	0.999649
581.903895	1.000569
582.257463	1.000114
582.610975	1.000212
582.964434	1.000744
583.317837	1.001601
583.671186	1.000686
584.024481	1.000263
584.377721	1.000801
584.730906	1.000941
585.084037	1.000404
585.437113	1.001195
585.790135	1.000845
586.143103	0.999776
586.496016	1.001500
586.848874	1.000052
587.201679	0.999672
587.554428	1.000114
587.907124	1.000434
588.259765	1.000690
588.612352	1.001255
588.964884	1.001055
589.317362	1.000741
589.669786	1.000459
590.022155	1.001082
590.374470	1.000270
590.726731	1.000193
591.078937	0.999810
591.431090	1.000771
591.783188	1.000301
592.135232	1.000721
592.487222	1.000777
592.839157	1.000774
593.191038	1.000270
593.542866	1.000870
593.894639	1.001880
594.246358	1.000136
594.598022	1.000327
594.949633	1.000803
595.301190	1.000893
595.652692	1.000578
596.004141	1.001320
596.355535	1.001062
596.706876	1.000504
597.058162	1.001120
597.409395	1.000270
597.760573	1.000396
598.111698	1.000933
598.462768	1.000427
598.813785	1.000488
599.164748	1.000626
599.515657	1.000583
599.866511	1.000809
600.217312	1.000645
600.568060	1.000754
600.918753	1.000830
601.269392	1.000256
601.619978	1.000183
601.970510	1.000703
602.320988	1.001183
602.671412	1.000377
603.021783	1.001175
603.372100	1.001595
603.722363	1.001360
604.072572	1.000842
604.422728	1.000987
604.772830	1.000356
605.122878	1.000454
605.472872	1.000823
605.822813	1.000011
606.172701	1.000372
606.522534	1.000669
606.872314	1.000492
607.222041	1.000301
607.571714	1.000979
607.921333	1.000360
608.270899	1.000451
608.620411	1.000464
608.969870	1.001610
609.319276	0.999954
609.668627	1.000836
610.017926	0.999879
610.367171	1.000236
610.716362	1.000253
611.065500	1.000002
611.414585	1.000485
611.763616	1.000696
612.112594	1.000513
612.461518	1.000562
612.810389	1.000291
613.159207	1.000453
613.507971	1.000066
613.856682	1.000539
614.205340	1.001048
614.553945	1.000149
614.902496	0.999812
615.250994	1.000096
615.599439	1.000837
615.947830	1.000260
616.296169	1.000333
616.644454	0.999750
616.992686	1.000545
617.340864	1.000807
617.688990	1.000814
618.037063	1.000248
618.385082	1.000938
618.733048	1.000628
619.080961	1.000362
619.428821	1.001132
619.776628	0.999695
620.124382	1.000341
620.472083	0.999673
620.819731	1.001311
621.167326	1.000854
621.514868	1.000443
621.862357	1.000685
622.209793	1.001610
622.557176	0.999177
622.904506	1.000088
623.251783	0.999797
623.599007	1.000955
623.946179	1.000950
624.293297	1.000061
624.640363	1.000743
624.987376	0.999930
625.334336	1.000880
625.681243	1.000919
626.028097	1.001130
626.374899	1.001222
626.721647	1.000365
627.068343	1.000869
627.414987	1.000301
627.761577	1.000317
628.108115	1.000089
628.454600	1.000903
628.801032	1.000165
629.147412	1.000392
629.493739	1.000202
629.840014	1.000300
630.186236	1.000369
630.532405	0.999948
630.878521	1.000023
631.224585	1.000210
631.570597	0.999959
631.916556	0.999823
632.262462	1.000236
632.608316	1.000177
632.954117	1.000187
633.299866	1.000390
633.645562	1.000115
633.991206	1.000879
634.336797	1.001270
634.682336	0.999935
635.027823	1.000642
635.373257	1.000800
635.718639	1.000308
636.063968	0.999740
636.409245	0.999670
636.754470	1.000488
637.099642	1.000992
637.444762	1.000542
637.789829	1.000003
638.134845	1.000314
638.479808	0.999811
638.824719	1.000117
639.169577	0.999620
639.514383	1.000225
639.859137	1.000143
640.203839	1.000017
640.548489	0.999408
640.893086	1.000316
641.237632	1.000194
641.582125	0.999621
641.926566	0.998758
642.270955	1.000145
642.615292	0.999462
642.959576	0.999601
643.303809	1.000697
643.647990	0.999700
643.992118	1.000263
644.336195	1.000578
644.680219	0.999658
645.024192	0.999824
645.368112	0.999112
645.711981	1.000213
646.055797	0.999918
646.399562	0.999519
646.743274	0.998982
647.086935	0.999519
647.430544	0.998963
647.774101	0.999853
648.117606	1.000636
648.461059	0.999262
648.804460	0.999066
649.147810	0.999845
649.491108	0.999833
649.834354	0.999247
650.177548	0.999746
650.520690	0.999904
650.863781	0.999284
651.206820	1.000126
651.549807	0.999406
651.892742	0.999431
652.235626	0.999189
652.578458	0.999783
652.921238	0.998575
653.263967	0.999608
653.606644	0.999493
653.949269	0.999752
654.291843	0.998903
654.634365	0.998520
654.976836	0.998865
655.319255	0.998404
655.661622	0.999970
656.003938	0.999245
656.346203	0.999697
656.688416	0.998944
657.030577	0.999221
657.372687	0.998677
657.714746	0.998028
658.056753	0.998817
658.398708	0.998388
658.740612	0.999314
659.082465	0.998987
659.424266	0.998908
659.766016	0.998486
660.107715	0.997891
660.449362	0.997646
660.790958	0.998538
661.132503	0.996839
661.473996	0.998191
661.815438	0.998284
662.156829	0.997740
662.498168	0.998574
662.839456	0.997636
663.180693	0.997892
663.521879	0.998334
663.863013	0.997887
664.204097	0.998107
664.545129	0.997929
664.886110	0.997501
665.227040	0.997521
665.567918	0.997389
665.908746	0.996513
666.249522	0.996603
666.590248	0.996580
666.930922	0.997019
667.271545	0.996762
667.612118	0.996645
667.952639	0.996629
668.293109	0.996115
668.633528	0.995583
668.973896	0.996050
669.314213	0.995368
669.654480	0.995622
669.994695	0.995846
670.334859	0.996297
670.674973	0.994296
671.015035	0.995366
671.355047	0.995865
671.695008	0.995136
672.034918	0.995195
672.374777	0.994237
672.714585	0.994666
673.054342	0.995424
673.394049	0.994854
673.733705	0.993868
674.073310	0.993453
674.412864	0.994370
674.752368	0.993649
675.091820	0.994263
675.431223	0.993463
675.770574	0.993008
676.109875	0.992739
676.449125	0.993902
676.788324	0.993048
677.127473	0.994086
677.466571	0.993068
677.805619	0.992396
678.144616	0.992108
678.483562	0.992501
678.822458	0.991801
679.161303	0.991985
679.500098	0.991331
679.838842	0.992335
680.177535	0.992014
680.516179	0.992236
680.854771	0.991407
681.193314	0.991105
681.531805	0.990037
681.870247	0.989511
682.208638	0.988823
682.546978	0.988991
682.885268	0.988485
683.223508	0.988877
683.561697	0.987541
683.899836	0.988883
684.237925	0.988738
684.575963	0.987751
684.913951	0.987721
685.251889	0.987377
685.589776	0.987147
685.927614	0.986796
686.265401	0.985532
686.603137	0.985961
686.940824	0.984867
687.278460	0.985227
687.616046	0.984373
687.953582	0.983302
688.291068	0.983156
688.628504	0.982810
