Dividing Wavelength (nm)	Counts (n)	Blue Motor Position (mm): 0.000000	Red Motor Position (mm): 46.500000	
326.493990	1.001564
326.888308	1.001564
327.282561	1.001564
327.676750	1.000235
328.070874	1.000106
328.464933	0.999692
328.858929	1.000028
329.252859	1.000315
329.646726	0.999070
330.040528	1.000340
330.434265	1.000434
330.827938	1.001227
331.221547	1.001570
331.615091	1.000162
332.008571	1.000722
332.401986	1.000203
332.795338	1.000793
333.188625	0.999452
333.581847	1.000605
333.975006	0.999962
334.368100	1.000194
334.761129	0.999211
335.154095	1.000979
335.546996	0.999810
335.939833	0.999173
336.332606	0.999934
336.725315	1.001338
337.117960	1.001421
337.510540	0.999353
337.903056	1.000934
338.295508	0.998935
338.687896	1.000993
339.080220	1.000458
339.472480	1.001157
339.864676	0.999482
340.256807	1.000890
340.648875	1.000880
341.040879	1.000779
341.432818	1.000791
341.824694	0.999348
342.216506	1.002067
342.608253	1.000088
342.999937	1.000337
343.391557	0.999771
343.783113	0.999323
344.174605	0.999468
344.566033	1.000658
344.957397	0.998716
345.348697	1.000651
345.739934	1.000269
346.131106	0.999540
346.522215	0.999432
346.913260	1.000669
347.304241	1.000171
347.695159	1.001589
348.086012	0.998746
348.476802	0.999817
348.867528	1.001209
349.258191	0.999097
349.648789	1.000396
350.039324	0.999680
350.429796	1.001179
350.820203	1.001073
351.210548	1.000332
351.600828	1.000329
351.991045	0.999859
352.381198	1.000886
352.771288	0.999377
353.161314	1.000770
353.551276	1.000419
353.941175	1.000511
354.331010	0.999780
354.720782	1.000867
355.110490	0.999938
355.500135	1.000960
355.889717	0.999979
356.279235	0.999638
356.668689	0.999834
357.058080	0.999803
357.447408	1.001378
357.836672	0.999911
358.225873	1.000504
358.615010	0.999915
359.004084	1.000208
359.393095	1.000421
359.782043	0.999509
360.170927	1.000654
360.559748	1.001300
360.948505	1.000326
361.337199	1.000067
361.725830	1.001213
362.114398	0.999559
362.502903	1.000424
362.891344	1.000794
363.279722	1.000634
363.668037	1.001371
364.056289	1.001228
364.444478	1.001002
364.832603	1.000977
365.220665	1.001166
365.608665	0.999183
365.996601	1.000478
366.384474	1.001093
366.772284	1.001446
367.160031	0.998565
367.547715	0.999720
367.935336	1.000858
368.322893	0.999877
368.710388	0.999695
369.097820	1.000357
369.485189	0.999524
369.872495	0.999232
370.259738	0.998261
370.646918	1.001003
371.034035	1.001047
371.421090	0.999475
371.808081	1.000518
372.195010	1.001410
372.581875	1.000355
372.968678	0.999738
373.355418	1.000241
373.742096	0.999080
374.128710	1.000092
374.515262	0.999047
374.901751	1.000832
375.288177	0.999767
375.674540	1.000465
376.060841	1.000025
376.447079	1.000790
376.833254	1.000505
377.219367	0.999733
377.605417	1.000260
377.991404	1.001484
378.377329	1.000240
378.763191	0.999820
379.148991	1.000892
379.534727	1.000971
379.920402	1.000680
380.306013	1.000531
380.691563	1.000221
381.077049	0.999441
381.462474	1.000652
381.847835	1.001242
382.233134	1.000215
382.618371	1.000594
383.003545	1.000383
383.388657	1.000525
383.773706	1.000822
384.158693	1.000211
384.543618	1.000441
384.928480	1.000771
385.313280	1.000456
385.698017	1.001130
386.082692	1.001569
386.467305	1.000687
386.851856	1.001030
387.236344	1.001181
387.620770	1.000376
388.005133	1.001127
388.389435	1.001048
388.773674	1.000696
389.157851	1.001358
389.541965	1.001161
389.926018	1.000102
390.310008	1.002440
390.693936	1.000411
391.077802	1.001738
391.461606	1.000891
391.845348	1.001835
392.229027	1.002058
392.612645	1.001002
392.996200	1.001674
393.379694	1.000966
393.763125	1.002148
394.146494	1.001663
394.529801	1.000889
394.913047	1.002617
395.296230	1.001478
395.679351	1.000632
396.062410	1.001261
396.445408	1.001332
396.828343	1.000898
397.211217	1.000676
397.594028	1.000903
397.976778	1.000284
398.359466	1.000430
398.742092	1.001611
399.124656	1.000683
399.507158	1.001530
399.889598	1.001059
400.271977	1.000919
400.654294	1.002253
401.036549	1.002082
401.418742	1.001869
401.800874	1.001425
402.182944	1.000741
402.564952	1.000665
402.946898	1.002103
403.328783	1.001049
403.710606	1.001776
404.092367	1.001223
404.474067	1.001367
404.855705	1.001175
405.237282	1.001695
405.618797	1.000321
406.000250	1.000823
406.381642	1.001538
406.762972	1.001274
407.144240	1.001503
407.525447	1.001440
407.906593	1.001760
408.287677	1.000750
408.668700	1.002054
409.049661	1.000395
409.430560	1.001105
409.811399	1.001080
410.192176	1.001350
410.572891	1.001156
410.953545	1.000582
411.334138	1.000996
411.714669	1.001979
412.095139	1.001048
412.475547	1.001488
412.855894	1.001129
413.236180	1.001843
413.616405	1.002676
413.996568	1.002261
414.376670	1.001358
414.756711	1.000822
415.136691	1.000554
415.516609	1.002009
415.896466	1.001048
416.276262	0.999940
416.655997	1.001964
417.035670	1.000478
417.415283	1.000945
417.794834	1.001145
418.174324	1.001077
418.553753	1.000975
418.933121	1.000610
419.312428	1.001000
419.691674	1.000988
420.070859	1.001399
420.449983	1.001126
420.829045	1.000904
421.208047	1.002320
421.586988	1.002604
421.965867	1.001031
422.344686	1.001725
422.723444	1.001439
423.102141	1.001536
423.480777	1.001611
423.859352	1.001187
424.237866	1.000221
424.616319	1.000840
424.994712	1.000354
425.373044	1.001626
425.751314	1.001708
426.129524	1.000719
426.507673	1.001587
426.885762	1.001690
427.263789	1.001801
427.641756	1.001088
428.019662	1.002460
428.397508	1.001283
428.775292	0.999965
429.153016	1.000800
429.530679	1.001889
429.908282	1.001536
430.285824	1.000845
430.663305	1.000479
431.040726	1.001271
431.418086	1.002202
431.795385	1.001631
432.172624	1.000974
432.549802	1.001738
432.926920	1.001145
433.303977	1.000393
433.680974	1.001280
434.057910	1.001343
434.434786	1.001442
434.811601	1.001088
435.188355	1.000820
435.565050	1.000942
435.941683	1.001605
436.318257	1.001683
436.694770	1.000904
437.071222	1.001667
437.447614	1.000668
437.823946	1.001799
438.200218	1.001579
438.576429	1.001562
438.952580	1.001522
439.328670	1.001100
439.704700	1.001428
440.080670	1.001058
440.456580	1.000893
440.832429	1.000859
441.208218	1.001533
441.583947	1.001664
441.959616	1.001480
442.335224	1.001786
442.710773	1.002079
443.086261	1.000990
443.461689	1.001032
443.837057	1.001416
444.212365	1.001398
444.587612	1.000792
444.962800	1.000966
445.337927	1.002135
445.712995	1.001646
446.088002	1.002100
446.462949	1.001915
446.837837	1.001205
447.212664	1.001595
447.587431	1.001854
447.962139	1.000356
448.336786	1.001239
448.711374	1.001941
449.085901	1.000775
449.460369	1.002153
449.834776	1.000576
450.209124	1.001287
450.583412	1.001485
450.957640	1.001405
451.331808	1.000963
451.705917	1.001613
452.079965	1.000688
452.453954	1.001334
452.827883	1.000216
453.201752	1.001209
453.575562	1.001781
453.949311	1.001397
454.323001	1.001891
454.696632	1.001455
455.070202	1.000985
455.443713	1.001440
455.817164	1.001904
456.190556	1.001304
456.563888	1.001522
456.937160	1.001614
457.310373	1.001010
457.683526	1.001335
458.056619	1.001579
458.429653	1.001663
458.802628	1.000442
459.175542	1.000675
459.548398	1.001894
459.921194	1.001378
460.293930	1.001255
460.666607	1.001209
461.039224	1.000024
461.411782	1.001296
461.784280	1.000938
462.156719	1.002218
462.529099	1.001798
462.901419	1.001157
463.273680	1.001142
463.645882	1.001010
464.018024	1.001282
464.390106	1.001384
464.762130	1.002330
465.134094	1.001167
465.505999	1.002013
465.877845	1.000988
466.249631	1.001704
466.621358	1.001797
466.993026	1.001523
467.364634	1.001895
467.736184	1.001957
468.107674	1.001175
468.479105	1.001255
468.850477	1.002452
469.221790	1.001513
469.593043	1.001664
469.964238	1.002803
470.335373	1.001401
470.706449	1.001628
471.077467	1.001830
471.448425	1.001232
471.819324	1.002101
472.190164	1.001055
472.560945	1.001805
472.931667	1.001285
473.302330	1.000618
473.672934	1.002360
474.043479	1.001747
474.413965	1.001631
474.784393	1.001891
475.154761	1.001346
475.525070	1.001095
475.895321	1.001532
476.265513	1.001157
476.635645	1.001848
477.005719	1.002744
477.375734	1.000397
477.745691	1.001666
478.115588	1.001687
478.485427	1.002067
478.855207	1.001535
479.224928	1.001489
479.594591	1.001879
479.964194	1.001819
480.333739	1.002335
480.703226	1.001438
481.072653	1.002207
481.442022	1.001272
481.811333	1.001448
482.180584	1.001981
482.549777	1.000805
482.918912	1.001406
483.287988	1.001336
483.657005	1.001364
484.025964	1.002412
484.394864	1.002070
484.763706	1.002209
485.132489	1.001606
485.501213	1.001219
485.869879	1.001744
486.238487	1.002495
486.607036	1.001641
486.975527	1.001436
487.343959	1.001280
487.712333	1.001877
488.080648	1.001954
488.448905	1.001212
488.817104	1.002016
489.185244	1.001806
489.553326	1.001912
489.921350	1.001505
490.289315	1.001566
490.657222	1.001875
491.025070	1.002036
491.392861	1.002377
491.760593	1.001885
492.128267	1.001650
492.495883	1.001655
492.863440	1.002017
493.230939	1.001998
493.598380	1.001490
493.965763	1.001697
494.333088	1.001786
494.700354	1.001313
495.067563	1.001684
495.434713	1.001673
495.801805	1.002575
496.168839	1.002119
496.535815	1.001474
496.902733	1.001133
497.269593	1.001624
497.636395	1.001561
498.003139	1.001650
498.369825	1.001974
498.736453	1.001550
499.103023	1.001299
499.469535	1.001556
499.835989	1.001040
500.202385	1.001982
500.568723	1.001650
500.935003	1.001820
501.301226	1.001648
501.667390	1.001698
502.033497	1.001850
502.399546	1.001697
502.765537	1.001329
503.131470	1.001402
503.497345	1.001166
503.863163	1.002306
504.228923	1.002185
504.594625	1.001566
504.960269	1.002801
505.325856	1.001959
505.691385	1.001589
506.056856	1.001055
506.422270	1.001856
506.787625	1.001533
507.152924	1.001579
507.518164	1.001571
507.883347	1.001961
508.248472	1.001232
508.613540	1.001471
508.978550	1.001555
509.343503	1.001853
509.708398	1.001344
510.073236	1.001301
510.438016	1.001871
510.802738	1.001389
511.167403	1.002013
511.532010	1.001899
511.896561	1.001760
512.261053	1.003067
512.625488	1.001195
512.989866	1.002133
513.354186	1.001664
513.718449	1.001205
514.082655	1.001845
514.446803	1.001513
514.810894	1.001559
515.174927	1.001640
515.538904	1.001398
515.902822	1.001938
516.266684	1.001653
516.630488	1.002034
516.994235	1.001179
517.357925	1.001106
517.721558	1.001745
518.085133	1.001188
518.448651	1.002683
518.812112	1.001676
519.175516	1.001328
519.538863	1.001541
519.902152	1.001350
520.265385	1.001310
520.628560	1.001645
520.991678	1.001962
521.354739	1.001868
521.717743	1.002126
522.080690	1.002242
522.443580	1.001345
522.806413	1.001709
523.169189	1.001628
523.531908	1.001051
523.894569	1.002177
524.257174	1.002101
524.619722	1.001863
524.982213	1.001558
525.344647	1.001606
525.707025	1.001019
526.069345	1.000871
526.431608	1.001219
526.793815	1.001761
527.155964	1.001021
527.518057	1.001425
527.880093	1.002007
528.242072	1.001612
528.603995	1.001342
528.965860	1.002732
529.327669	1.001700
529.689421	1.001223
530.051117	1.002017
530.412755	1.001702
530.774337	1.002018
531.135862	1.001781
531.497331	1.001231
531.858743	1.002343
532.220098	1.002123
532.581396	1.001896
532.942638	1.001768
533.303824	1.001341
533.664953	1.002322
534.026025	1.001656
534.387040	1.001460
534.747999	1.001668
535.108902	1.002029
535.469748	1.001493
535.830537	1.001668
536.191270	1.001571
536.551947	1.001274
536.912567	1.001842
537.273131	1.002688
537.633638	1.001366
537.994089	1.001317
538.354483	1.002066
538.714821	1.002202
539.075103	1.001644
539.435328	1.001661
539.795497	1.001880
540.155609	1.001321
540.515665	1.001501
540.875665	1.001175
541.235609	1.001474
541.595496	1.001935
541.955328	1.000908
542.315102	1.001898
542.674821	1.001813
543.034483	1.000820
543.394090	1.000838
543.753640	1.001811
544.113134	1.001441
544.472571	1.000697
544.831953	1.002191
545.191278	1.001219
545.550548	1.002180
545.909761	1.000751
546.268918	1.001696
546.628019	1.001805
546.987064	1.001277
547.346053	1.002090
547.704986	1.001691
548.063863	1.001829
548.422684	1.001576
548.781449	1.002280
549.140158	1.001423
549.498811	1.001083
549.857408	1.001667
550.215949	1.001515
550.574434	1.000863
550.932864	1.001392
551.291237	1.001733
551.649555	1.001586
552.007817	1.001797
552.366022	1.001405
552.724173	1.001825
553.082267	1.001721
553.440305	1.001534
553.798288	1.001545
554.156215	1.001706
554.514086	1.001626
554.871902	1.001769
555.229661	1.001521
555.587365	1.001572
555.945014	1.001912
556.302606	1.000912
556.660143	1.001552
557.017625	1.001916
557.375050	1.001516
557.732421	1.001320
558.089735	1.001918
558.446994	1.002820
558.804197	1.002662
559.161345	1.002408
559.518437	1.001912
559.875474	1.001359
560.232455	1.001722
560.589381	1.001241
560.946251	1.001291
561.303065	1.001305
561.659825	1.001909
562.016528	1.001206
562.373177	1.001888
562.729770	1.001086
563.086307	1.001620
563.442789	1.000806
563.799216	1.001733
564.155587	1.000829
564.511904	1.001693
564.868164	1.000935
565.224370	1.001199
565.580520	1.001232
565.936615	1.001365
566.292654	1.001510
566.648638	1.001751
567.004567	1.001173
567.360441	1.001747
567.716260	1.001734
568.072023	1.001225
568.427732	1.001387
568.783385	1.001784
569.138982	1.000942
569.494525	1.001753
569.850013	1.001661
570.205445	1.001057
570.560823	1.001569
570.916145	1.000990
571.271412	1.001405
571.626625	1.001229
571.981782	1.001089
572.336884	1.002186
572.691931	1.001374
573.046923	1.000478
573.401860	1.001336
573.756743	1.001375
574.111570	1.001797
574.466342	1.002061
574.821059	1.001857
575.175722	1.001903
575.530330	1.001882
575.884882	1.000871
576.239380	1.002057
576.593823	1.001412
576.948211	1.001239
577.302544	1.001153
577.656823	1.001758
578.011047	1.001142
578.365216	1.001311
578.719330	1.000468
579.073389	1.001961
579.427394	1.001256
579.781344	1.001941
580.135239	1.000960
580.489080	1.001004
580.842866	1.002206
581.196597	1.001474
581.550273	1.000490
581.903895	1.001768
582.257463	1.000728
582.610975	1.001378
582.964434	1.001657
583.317837	1.002458
583.671186	1.001220
584.024481	1.001126
584.377721	1.001712
584.730906	1.001625
585.084037	1.001326
585.437113	1.001150
585.790135	1.001334
586.143103	1.001082
586.496016	1.001871
586.848874	1.000774
587.201679	1.001260
587.554428	1.001168
587.907124	1.001791
588.259765	1.001254
588.612352	1.002562
588.964884	1.001281
589.317362	1.001470
589.669786	1.001715
590.022155	1.002040
590.374470	1.000735
590.726731	1.000862
591.078937	1.000721
591.431090	1.000897
591.783188	1.001381
592.135232	1.001919
592.487222	1.002018
592.839157	1.001159
593.191038	1.001598
593.542866	1.001391
593.894639	1.001952
594.246358	1.001240
594.598022	1.001149
594.949633	1.001665
595.301190	1.002083
595.652692	1.001223
596.004141	1.002044
596.355535	1.001074
596.706876	1.000787
597.058162	1.001486
597.409395	1.001024
597.760573	1.000799
598.111698	1.001788
598.462768	1.000934
598.813785	1.001077
599.164748	1.001665
599.515657	1.001278
599.866511	1.001228
600.217312	1.001125
600.568060	1.001362
600.918753	1.001308
601.269392	1.001604
601.619978	1.001063
601.970510	1.001185
602.320988	1.002057
602.671412	1.001437
603.021783	1.001578
603.372100	1.002131
603.722363	1.002358
604.072572	1.001419
604.422728	1.001268
604.772830	1.000863
605.122878	1.001178
605.472872	1.001435
605.822813	1.001020
606.172701	1.001368
606.522534	1.001827
606.872314	1.002139
607.222041	1.001279
607.571714	1.002081
607.921333	1.001143
608.270899	1.001324
608.620411	1.001548
608.969870	1.002247
609.319276	1.001599
609.668627	1.001292
610.017926	1.000804
610.367171	1.000616
610.716362	1.001098
611.065500	1.001020
611.414585	1.001942
611.763616	1.000676
612.112594	1.000981
612.461518	1.000909
612.810389	1.001099
613.159207	1.001386
613.507971	1.000447
613.856682	1.001641
614.205340	1.001363
614.553945	1.000609
614.902496	1.000952
615.250994	1.001560
615.599439	1.001031
615.947830	1.001055
616.296169	1.001494
616.644454	1.001078
616.992686	1.001817
617.340864	1.000872
617.688990	1.001445
618.037063	1.001386
618.385082	1.001253
618.733048	1.000969
619.080961	1.001633
619.428821	1.001427
619.776628	1.000901
620.124382	1.001586
620.472083	1.000103
620.819731	1.001706
621.167326	1.000683
621.514868	1.000451
621.862357	1.000986
622.209793	1.001458
622.557176	0.999672
622.904506	1.000652
623.251783	1.000208
623.599007	1.001895
623.946179	1.001155
624.293297	1.000557
624.640363	1.001160
624.987376	1.000680
625.334336	1.001578
625.681243	1.001644
626.028097	1.001801
626.374899	1.001158
626.721647	1.001645
627.068343	1.001678
627.414987	1.000844
627.761577	1.001212
628.108115	1.001394
628.454600	1.001025
628.801032	1.000676
629.147412	1.000613
629.493739	1.000769
629.840014	1.000624
630.186236	1.000702
630.532405	1.000880
630.878521	1.000938
631.224585	1.001365
631.570597	1.001102
631.916556	1.001326
632.262462	1.001657
632.608316	1.001092
632.954117	1.001126
633.299866	1.000103
633.645562	1.001355
633.991206	1.000299
634.336797	1.001826
634.682336	1.000135
635.027823	1.002058
635.373257	1.002035
635.718639	1.001409
636.063968	1.001033
636.409245	1.000516
636.754470	1.000954
637.099642	1.001449
637.444762	1.001267
637.789829	1.000818
638.134845	1.000619
638.479808	1.001009
638.824719	1.001789
639.169577	0.999700
639.514383	1.000654
639.859137	1.000837
640.203839	1.001136
640.548489	1.000827
640.893086	1.000910
641.237632	1.001522
641.582125	0.999416
641.926566	1.000716
642.270955	1.000761
642.615292	1.000889
642.959576	1.001071
643.303809	1.000995
643.647990	1.000444
643.992118	1.001176
644.336195	1.001277
644.680219	1.001034
645.024192	1.000853
645.368112	1.000644
645.711981	1.001069
646.055797	1.000514
646.399562	1.001201
646.743274	0.999995
647.086935	1.000744
647.430544	1.000178
647.774101	1.000340
648.117606	1.001089
648.461059	1.000145
648.804460	1.000415
649.147810	1.000786
649.491108	1.000959
649.834354	1.000065
650.177548	1.001087
650.520690	1.000506
650.863781	1.000182
651.206820	1.000882
651.549807	1.000080
651.892742	1.000560
652.235626	1.000842
652.578458	1.000771
652.921238	1.000047
653.263967	1.001275
653.606644	1.001499
653.949269	1.000378
654.291843	1.000695
654.634365	1.000270
654.976836	1.001048
655.319255	1.000664
655.661622	1.001300
656.003938	0.999892
656.346203	1.001136
656.688416	1.001056
657.030577	1.001319
657.372687	1.000485
657.714746	1.000334
658.056753	1.000566
658.398708	1.001380
658.740612	1.001082
659.082465	1.000622
659.424266	1.000646
659.766016	1.000330
660.107715	1.000011
660.449362	0.999829
660.790958	1.000575
661.132503	0.999189
661.473996	1.000495
661.815438	1.000658
662.156829	1.000225
662.498168	1.000722
662.839456	1.000501
663.180693	1.000624
663.521879	1.000303
663.863013	1.000910
664.204097	1.001348
664.545129	1.000892
664.886110	1.000465
665.227040	0.999843
665.567918	0.999814
665.908746	0.999664
666.249522	0.999585
666.590248	1.000002
666.930922	1.000488
667.271545	1.000347
667.612118	0.999876
667.952639	0.999787
668.293109	1.000689
668.633528	0.999430
668.973896	1.000465
669.314213	0.999321
669.654480	1.000448
669.994695	1.000330
670.334859	1.000177
670.674973	0.999508
671.015035	1.000073
671.355047	0.999574
671.695008	1.000721
672.034918	0.999060
672.374777	1.000559
672.714585	1.000202
673.054342	1.000044
673.394049	0.999295
673.733705	0.999122
674.073310	0.999220
674.412864	0.999512
674.752368	0.999776
675.091820	1.001148
675.431223	1.000016
675.770574	0.999345
676.109875	0.999858
676.449125	1.000405
676.788324	0.999347
677.127473	0.999957
677.466571	0.999215
677.805619	0.999101
678.144616	0.999443
678.483562	0.999353
678.822458	0.999446
679.161303	1.001127
679.500098	0.999423
679.838842	1.000155
680.177535	1.000161
680.516179	0.999511
680.854771	1.000267
681.193314	0.999402
681.531805	0.999413
681.870247	0.998663
682.208638	0.998956
682.546978	0.998226
682.885268	0.999461
683.223508	0.998756
683.561697	0.998464
683.899836	0.999418
684.237925	1.000487
684.575963	0.999104
684.913951	0.998186
685.251889	0.998376
685.589776	0.999160
685.927614	0.998395
686.265401	0.998193
686.603137	0.998776
686.940824	0.997466
687.278460	0.997734
687.616046	0.997418
687.953582	0.996317
688.291068	0.996993
688.628504	0.998638
